# do not edit -- automatically generated Thu Aug 22 13:40:06 2019 from /susfu/kashyap/solar/ISSI/Capella_O7/binned_11t18.pro
# 
# events in wavelength region [11.00,18.00] Ang
# 
# BACKSCAL = 15.6250
#columns are:
#WLOW: wavelength grid bin lower bound [Angstrom]
#WHIGH: wavelength grid bin upper bound [Angstrom]
#SRCCT: counts in bin [ct]
#BKGCT: background counts in bin [ct]
#EA{p|n}_OBSID: effective area for each ObsID [cm^2 ksec]
WLOW	WHIGH	SRCCT	BKGCT	EAn_00055	EAn_08319	EAn_18358	EAn_18360	EAn_18362
N	N	N	N	N	N	N	N	N
11.0000	11.0050	74	3	1583.1608	1319.8882	140.33932	141.17670	130.60304
11.0050	11.0100	69	10	1581.8288	1318.0704	140.09558	140.93178	132.08146
11.0100	11.0150	68	4	1580.4998	1316.6828	139.85475	140.69001	133.79832
11.0150	11.0200	75	7	1579.1713	1315.2958	139.61401	140.44833	135.51452
11.0200	11.0250	67	5	1577.8459	1314.1942	139.37456	140.20742	136.29884
11.0250	11.0300	76	4	1576.5217	1313.2028	139.13563	139.96682	136.72341
11.0300	11.0350	46	7	1575.1988	1311.9388	138.89696	139.72668	137.11303
11.0350	11.0400	59	3	1573.8788	1309.7141	138.65893	139.48786	137.38010
11.0400	11.0450	44	5	1572.5593	1307.4902	138.42098	139.24913	137.64707
11.0450	11.0500	44	7	1571.2420	1305.7784	138.18264	139.01002	137.58039
11.0500	11.0550	42	2	1569.9264	1304.2652	137.94427	138.77089	137.38489
11.0550	11.0600	39	6	1568.6112	1302.5882	137.70594	138.53177	137.17987
11.0600	11.0650	38	4	1567.2998	1300.3384	137.46817	138.29310	136.94179
11.0650	11.0700	22	7	1565.9884	1298.0887	137.23039	138.05442	136.70371
11.0700	11.0750	18	0	1564.6485	1297.7521	136.99051	137.81423	136.46391
11.0750	11.0800	30	3	1563.2982	1298.1551	136.74994	137.57359	136.22357
11.0800	11.0850	21	2	1562.0239	1298.0392	136.51621	137.33970	135.98999
11.0850	11.0900	25	1	1561.0189	1296.0986	136.30694	137.13000	135.78058
11.0900	11.0950	24	3	1560.0135	1294.1573	136.09760	136.92022	135.57110
11.0950	11.1000	37	3	1558.9928	1291.5935	135.88607	136.70851	135.35990
11.1000	11.1050	29	2	1557.9659	1288.7885	135.67362	136.49598	135.14795
11.1050	11.1100	29	8	1556.9397	1286.4548	135.46102	136.28327	134.93567
11.1100	11.1150	33	3	1555.9159	1285.7793	135.24792	136.06996	134.72222
11.1150	11.1200	32	3	1554.8917	1285.1035	135.03473	135.85658	134.50868
11.1200	11.1250	46	4	1553.8700	1283.9216	134.82173	135.64348	134.29572
11.1250	11.1300	69	1	1552.8487	1282.5436	134.60868	135.43039	134.08286
11.1300	11.1350	51	5	1551.8285	1281.3081	134.39587	135.21764	133.87038
11.1350	11.1400	50	2	1550.8103	1280.5720	134.18357	135.00570	133.65885
11.1400	11.1450	53	3	1549.7924	1279.8362	133.97134	134.79384	133.44741
11.1450	11.1500	49	7	1548.7766	1277.9057	133.76034	134.58300	133.23667
11.1500	11.1550	54	5	1547.7615	1275.5133	133.54983	134.37256	133.02621
11.1550	11.1600	34	6	1546.7473	1273.1988	133.33957	134.16253	132.81611
11.1600	11.1650	29	6	1545.7351	1271.1564	133.12998	133.95376	132.60704
11.1650	11.1700	55	8	1544.7232	1269.1147	132.92047	133.74507	132.39805
11.1700	11.1750	37	7	1543.7133	1268.1663	132.71173	133.53726	132.18956
11.1750	11.1800	42	3	1542.7046	1267.6412	132.50341	133.32989	131.98139
11.1800	11.1850	38	4	1541.6963	1266.6338	132.29534	133.12263	131.77352
11.1850	11.1900	31	8	1540.6906	1263.9303	132.08850	132.91612	131.56707
11.1900	11.1950	29	4	1539.6849	1261.2269	131.88166	132.70960	131.36062
11.1950	11.2000	39	4	1538.6810	1260.0850	131.67509	132.50413	131.15445
11.2000	11.2050	33	4	1537.6783	1259.5478	131.46875	132.29916	130.94850
11.2050	11.2100	25	3	1536.6760	1258.5190	131.26263	132.09425	130.74274
11.2100	11.2150	20	6	1535.6764	1255.7591	131.05768	131.88994	130.53799
11.2150	11.2200	24	3	1534.6764	1252.9983	130.85265	131.68555	130.33317
11.2200	11.2250	29	2	1533.7166	1251.0364	130.65147	131.48462	130.13261
11.2250	11.2300	29	6	1532.7719	1249.3829	130.45172	131.28496	129.93365
11.2300	11.2350	40	4	1531.8355	1247.9272	130.25289	131.08621	129.73566
11.2350	11.2400	56	6	1530.9285	1247.1684	130.05731	130.89068	129.54116
11.2400	11.2450	56	6	1530.0210	1246.4093	129.86166	130.69509	129.34658
11.2450	11.2500	81	8	1529.1160	1243.9747	129.66696	130.50020	129.15316
11.2500	11.2550	77	6	1528.2113	1240.8905	129.47253	130.30549	128.96009
11.2550	11.2600	53	7	1527.3076	1238.4003	129.27836	130.11112	128.76730
11.2600	11.2650	54	2	1526.4054	1238.0010	129.08482	129.91761	128.57517
11.2650	11.2700	54	8	1525.5036	1237.6018	128.89134	129.72418	128.38311
11.2700	11.2750	42	6	1524.6442	1234.6684	128.70257	129.53502	128.19512
11.2750	11.2800	55	8	1523.8014	1230.7535	128.51562	129.34753	128.00871
11.2800	11.2850	42	5	1522.9623	1227.2925	128.32909	129.16064	127.82276
11.2850	11.2900	47	3	1522.1360	1225.4301	128.14382	128.97567	127.63822
11.2900	11.2950	48	3	1521.3100	1223.5685	127.95862	128.79077	127.45376
11.2950	11.3000	43	5	1520.4852	1222.2092	127.77433	128.60617	127.26956
11.3000	11.3050	47	5	1519.6613	1221.0451	127.59049	128.42179	127.08556
11.3050	11.3100	42	1	1518.8376	1219.2009	127.40671	128.23759	126.90172
11.3100	11.3150	63	3	1518.0159	1214.9611	127.22343	128.05433	126.71873
11.3150	11.3200	66	8	1517.1943	1210.7213	127.04016	127.87107	126.53574
11.3200	11.3250	83	13	1516.3738	1208.6775	126.85740	127.68834	126.35316
11.3250	11.3300	70	8	1515.5542	1207.4861	126.67494	127.50590	126.17082
11.3300	11.3350	70	10	1514.7347	1205.4685	126.49268	127.32358	125.98866
11.3350	11.3400	69	4	1513.9173	1200.5380	126.31145	127.14203	125.80747
11.3400	11.3450	51	5	1513.0995	1195.6057	126.13014	126.96040	125.62621
11.3450	11.3500	41	5	1512.2837	1192.6773	125.94930	126.77956	125.44563
11.3500	11.3550	46	7	1511.4683	1190.5238	125.76858	126.59896	125.26524
11.3550	11.3600	29	1	1510.6534	1188.2448	125.58814	126.41854	125.08511
11.3600	11.3650	27	3	1509.8402	1185.5232	125.40868	126.23875	124.90594
11.3650	11.3700	31	5	1509.0266	1182.8005	125.22915	126.05890	124.72670
11.3700	11.3750	24	2	1508.2149	1175.6659	125.04943	125.87901	124.54730
11.3750	11.3800	20	3	1507.4035	1166.8169	124.86954	125.69901	124.36775
11.3800	11.3850	27	3	1506.5929	1158.8097	124.68979	125.51916	124.18827
11.3850	11.3900	35	2	1505.7838	1153.7633	124.51027	125.33950	124.00872
11.3900	11.3950	34	4	1504.9749	1148.7189	124.33082	125.15990	123.82923
11.3950	11.4000	33	5	1504.1675	1135.5194	124.15280	124.98160	123.65131
11.4000	11.4050	30	3	1503.3608	1119.1580	123.97535	124.80380	123.47401
11.4050	11.4100	41	8	1502.5546	1104.5502	123.79831	124.62653	123.29717
11.4100	11.4150	44	9	1501.7498	1096.1326	123.62251	124.45091	123.12180
11.4150	11.4200	40	4	1500.9452	1087.7181	123.44679	124.27536	122.94650
11.4200	11.4250	62	2	1500.1419	1081.5598	123.27202	124.10038	122.77176
11.4250	11.4300	58	12	1499.3395	1076.2803	123.09771	123.92572	122.59734
11.4300	11.4350	74	10	1498.5372	1072.9799	122.92345	123.75119	122.42306
11.4350	11.4400	69	6	1497.7366	1076.6749	122.74965	123.57748	122.24960
11.4400	11.4450	73	7	1496.9360	1080.3699	122.57585	123.40376	122.07613
11.4450	11.4500	54	6	1496.1367	1088.4736	122.40318	123.23063	121.90319
11.4500	11.4550	61	4	1495.3382	1098.2847	122.23105	123.05781	121.73055
11.4550	11.4600	63	7	1494.5400	1108.2587	122.05900	122.88511	121.55810
11.4600	11.4650	55	5	1493.7436	1118.7908	121.88755	122.71311	121.38660
11.4650	11.4700	47	7	1492.9469	1129.3270	121.71604	122.54105	121.21503
11.4700	11.4750	41	2	1492.1490	1144.0529	121.54486	122.36953	121.04384
11.4750	11.4800	38	6	1491.3504	1160.4088	121.37376	122.19817	120.87274
11.4800	11.4850	38	1	1490.5440	1176.8497	121.20231	122.02619	120.70107
11.4850	11.4900	64	6	1489.7101	1193.5884	121.02967	121.85203	120.52743
11.4900	11.4950	40	2	1488.8759	1210.3336	120.85695	121.67780	120.35373
11.4950	11.5000	54	4	1488.0881	1226.6513	120.68818	121.50822	120.18443
11.5000	11.5050	60	2	1487.3179	1242.8118	120.52083	121.34035	120.01677
11.5050	11.5100	57	8	1486.5671	1257.1792	120.35546	121.17429	119.85092
11.5100	11.5150	51	8	1485.8836	1265.2209	120.19677	121.01435	119.69123
11.5150	11.5200	106	8	1485.2005	1273.2595	120.03814	120.85448	119.53160
11.5200	11.5250	62	8	1484.5184	1275.5520	119.88006	120.69534	119.37272
11.5250	11.5300	107	8	1483.8368	1275.6111	119.72221	120.53651	119.21414
11.5300	11.5350	75	13	1483.1557	1275.4568	119.56457	120.37789	119.05575
11.5350	11.5400	114	6	1482.4754	1274.5459	119.40751	120.21992	118.89786
11.5400	11.5450	111	3	1481.7955	1273.6353	119.25052	120.06201	118.74003
11.5450	11.5500	91	11	1481.1165	1272.7915	119.09401	119.90445	118.58280
11.5500	11.5550	73	3	1480.4382	1271.9741	118.93776	119.74711	118.42590
11.5550	11.5600	63	5	1479.7600	1271.1257	118.78161	119.58989	118.26904
11.5600	11.5650	56	4	1479.0832	1270.1692	118.62602	119.43334	118.11261
11.5650	11.5700	50	5	1478.4063	1269.2127	118.47044	119.27680	117.95618
11.5700	11.5750	61	4	1477.7303	1268.3604	118.31546	119.12079	117.80039
11.5750	11.5800	41	3	1477.0549	1267.5489	118.16078	118.96507	117.64494
11.5800	11.5850	55	6	1476.3797	1266.7179	118.00622	118.80941	117.48958
11.5850	11.5900	30	8	1475.7058	1265.8186	117.85231	118.65424	117.33484
11.5900	11.5950	45	5	1475.0318	1264.9191	117.69834	118.49901	117.18004
11.5950	11.6000	35	6	1474.3591	1264.0530	117.54521	118.34511	117.02603
11.6000	11.6050	27	6	1473.6867	1263.1996	117.39235	118.19167	116.87227
11.6050	11.6100	30	3	1473.0146	1262.3444	117.23971	118.03836	116.71879
11.6100	11.6150	25	0	1472.3437	1261.4823	117.08792	117.88554	116.56634
11.6150	11.6200	22	4	1471.6726	1260.6199	116.93606	117.73266	116.41383
11.6200	11.6250	36	1	1471.0029	1259.7515	116.78486	117.58117	116.26176
11.6250	11.6300	25	3	1470.3334	1258.8802	116.63383	117.43014	116.10978
11.6300	11.6350	30	6	1469.6645	1258.0233	116.48305	117.27915	115.95804
11.6350	11.6400	25	2	1468.9965	1257.2158	116.33291	117.12807	115.80685
11.6400	11.6450	15	3	1468.3288	1256.4087	116.18283	116.97704	115.65573
11.6450	11.6500	20	2	1467.6620	1255.5591	116.03316	116.82681	115.50528
11.6500	11.6550	32	3	1466.9956	1254.6930	115.88367	116.67691	115.35510
11.6550	11.6600	16	4	1466.3297	1253.8302	115.73437	116.52726	115.20502
11.6600	11.6650	25	3	1465.6646	1252.9777	115.58562	116.37836	115.05511
11.6650	11.6700	15	3	1464.9998	1252.1255	115.43693	116.22951	114.90526
11.6700	11.6750	22	8	1464.3359	1251.2854	115.28872	116.08126	114.75636
11.6750	11.6800	27	5	1463.6726	1250.4504	115.14079	115.93331	114.60790
11.6800	11.6850	19	4	1463.0094	1249.6102	114.99291	115.78547	114.45968
11.6850	11.6900	18	3	1462.3476	1248.7534	114.84551	115.63830	114.31258
11.6900	11.6950	15	3	1461.6859	1247.8966	114.69811	115.49113	114.16548
11.6950	11.7000	28	3	1461.0179	1247.0206	114.54786	115.34068	114.01485
11.7000	11.7050	31	3	1460.3479	1246.1376	114.39658	115.18903	113.86291
11.7050	11.7100	26	3	1459.6766	1245.2471	114.24361	115.03578	113.70952
11.7100	11.7150	33	5	1459.0022	1244.3314	114.08491	114.87715	113.55123
11.7150	11.7200	39	2	1458.3275	1243.4153	113.92615	114.71846	113.39288
11.7200	11.7250	41	7	1457.6490	1242.4966	113.76781	114.55998	113.23460
11.7250	11.7300	42	3	1456.9688	1241.5766	113.60957	114.40154	113.07629
11.7300	11.7350	54	5	1456.2687	1240.6403	113.44993	114.24165	112.91664
11.7350	11.7400	68	14	1455.4987	1239.6462	113.28535	114.07672	112.75225
11.7400	11.7450	63	7	1454.7283	1238.6517	113.12071	113.91172	112.58780
11.7450	11.7500	69	6	1453.9595	1237.6592	112.95668	113.74760	112.42403
11.7500	11.7550	77	7	1453.1908	1236.6671	112.79280	113.58373	112.26045
11.7550	11.7600	64	7	1452.4227	1235.6751	112.62927	113.42008	112.09710
11.7600	11.7650	77	9	1451.6557	1234.6820	112.46665	113.25695	111.93433
11.7650	11.7700	72	5	1450.8890	1233.6893	112.30409	113.09388	111.77161
11.7700	11.7750	87	6	1450.1236	1232.6984	112.14193	112.93151	111.60953
11.7750	11.7800	75	8	1449.3587	1231.7082	111.97993	112.76942	111.44771
11.7800	11.7850	77	10	1448.5942	1230.7189	111.81815	112.60749	111.28612
11.7850	11.7900	78	2	1447.8307	1229.7315	111.65698	112.44592	111.12516
11.7900	11.7950	57	10	1447.0674	1228.7446	111.49587	112.28442	110.96427
11.7950	11.8000	60	7	1446.3053	1227.7573	111.33515	112.12336	110.80358
11.8000	11.8050	49	5	1445.5439	1226.7705	111.17465	111.96257	110.64305
11.8050	11.8100	44	3	1444.7826	1225.7832	111.01421	111.80182	110.48261
11.8100	11.8150	48	3	1444.0229	1224.7961	110.85420	111.64151	110.32273
11.8150	11.8200	37	3	1443.2632	1223.8089	110.69420	111.48120	110.16285
11.8200	11.8250	49	1	1442.5045	1222.8236	110.53475	111.32141	110.00350
11.8250	11.8300	45	3	1441.7466	1221.8394	110.37560	111.16190	109.84444
11.8300	11.8350	46	2	1440.9888	1220.8557	110.21654	111.00252	109.68550
11.8350	11.8400	58	8	1440.2326	1219.8756	110.05805	110.84384	109.52723
11.8400	11.8450	42	4	1439.4761	1218.8951	109.89949	110.68511	109.36890
11.8450	11.8500	35	4	1438.7213	1217.9174	109.74179	110.52701	109.21117
11.8500	11.8550	38	6	1437.9669	1216.9404	109.58435	110.36910	109.05362
11.8550	11.8600	29	6	1437.2127	1215.9633	109.42651	110.21082	108.89576
11.8600	11.8650	36	5	1436.4593	1214.9862	109.26726	110.05130	108.73682
11.8650	11.8700	36	8	1435.7056	1214.0088	109.10795	109.89171	108.57782
11.8700	11.8750	21	7	1434.9533	1213.0335	108.94885	109.73259	108.41910
11.8750	11.8800	35	4	1434.2011	1212.0586	108.78975	109.57356	108.26042
11.8800	11.8850	37	2	1433.4495	1211.0847	108.63097	109.41475	108.10200
11.8850	11.8900	34	4	1432.6990	1210.1132	108.47305	109.25645	107.94424
11.8900	11.8950	38	5	1431.9487	1209.1421	108.31519	109.09821	107.78654
11.8950	11.9000	35	4	1431.1995	1208.1686	108.15704	108.94022	107.62895
11.9000	11.9050	34	4	1430.4507	1207.1943	107.99878	108.78234	107.47141
11.9050	11.9100	29	10	1429.7024	1206.2194	107.84074	108.62452	107.31395
11.9100	11.9150	32	7	1428.9552	1205.2412	107.68330	108.46672	107.15657
11.9150	11.9200	34	3	1428.2083	1204.2633	107.52593	108.30899	106.99926
11.9200	11.9250	37	3	1427.4367	1203.2658	107.36676	108.14992	106.84069
11.9250	11.9300	44	3	1426.6558	1202.2610	107.20698	107.99041	106.68172
11.9300	11.9350	39	5	1425.8727	1201.2549	107.04509	107.83087	106.52268
11.9350	11.9400	42	4	1425.0835	1200.2455	106.87596	107.67153	106.36365
11.9400	11.9450	41	6	1424.2943	1199.2361	106.70682	107.51219	106.20463
11.9450	11.9500	30	5	1423.5060	1198.2287	106.50863	107.35327	106.04623
11.9500	11.9550	43	3	1422.7186	1197.2226	106.29919	107.19460	105.88816
11.9550	11.9600	49	2	1421.9312	1196.2169	106.06897	107.03608	105.73019
11.9600	11.9650	42	1	1421.1455	1195.2140	105.76509	106.87834	105.57286
11.9650	11.9700	36	3	1420.3596	1194.2108	105.46110	106.72055	105.41547
11.9700	11.9750	34	5	1419.5752	1193.2106	104.84205	106.56331	105.25879
11.9750	11.9800	32	2	1418.7913	1192.2114	104.09975	106.40624	105.10235
11.9800	11.9850	35	3	1418.0078	1191.2129	103.33889	106.24939	104.94606
11.9850	11.9900	52	1	1417.2261	1190.2173	102.51195	106.09337	104.79036
11.9900	11.9950	31	5	1416.4441	1189.2214	101.68470	105.93729	104.63461
11.9950	12.0000	31	0	1415.6638	1188.2316	100.52156	105.78217	104.47997
12.0000	12.0050	35	3	1414.8837	1187.2437	99.226546	105.62735	104.32568
12.0050	12.0100	27	7	1414.1043	1186.2581	97.998855	105.47287	104.17167
12.0100	12.0150	19	4	1413.3260	1185.2789	97.009113	105.31931	104.01839
12.0150	12.0200	20	2	1412.5480	1184.3002	96.019748	105.16581	103.86517
12.0200	12.0250	24	1	1411.7709	1183.3236	95.045445	105.01317	103.71269
12.0250	12.0300	28	3	1410.9944	1182.3480	94.077101	104.86088	103.56052
12.0300	12.0350	21	1	1410.2184	1181.3734	93.043556	104.70858	103.40850
12.0350	12.0400	26	4	1409.4437	1180.4014	91.776069	104.55610	103.25689
12.0400	12.0450	29	8	1408.6692	1179.4297	90.509066	104.40367	103.10533
12.0450	12.0500	21	8	1407.8958	1178.4594	89.738665	104.25207	102.95449
12.0500	12.0550	37	6	1407.1232	1177.4902	89.162888	104.10086	102.80401
12.0550	12.0600	37	5	1406.3508	1176.5217	88.570244	103.94975	102.65366
12.0600	12.0650	40	2	1405.5797	1175.5558	87.917779	103.79902	102.50387
12.0650	12.0700	35	2	1404.8088	1174.5902	87.265438	103.64833	102.35411
12.0700	12.0750	32	1	1404.0390	1173.6266	87.586759	103.49803	102.20496
12.0750	12.0800	48	6	1403.2700	1172.6643	88.288993	103.34798	102.05612
12.0800	12.0850	44	7	1402.5012	1171.7023	88.844134	103.19808	101.90738
12.0850	12.0900	66	8	1401.7339	1170.7430	88.873169	103.04901	101.75928
12.0900	12.0950	75	11	1400.9664	1169.7834	88.902215	102.89988	101.61112
12.0950	12.1000	127	10	1400.2004	1168.8272	89.011937	102.75137	101.46370
12.1000	12.1050	131	11	1399.4347	1167.8720	89.153245	102.60305	101.31652
12.1050	12.1100	154	7	1398.6695	1166.9180	89.325186	102.45496	101.16946
12.1100	12.1150	215	20	1397.9060	1165.9685	89.606465	102.30773	101.02285
12.1150	12.1200	291	16	1397.1423	1165.0186	89.887850	102.16044	100.87619
12.1200	12.1250	372	27	1396.3800	1164.0716	89.848803	101.96130	100.72985
12.1250	12.1300	353	33	1395.6179	1163.1252	89.684309	101.74175	100.58356
12.1300	12.1350	425	27	1394.8777	1162.1983	89.679525	101.47419	100.43907
12.1350	12.1400	384	39	1394.2143	1161.3394	90.245497	101.03454	100.30080
12.1400	12.1450	394	30	1393.5513	1160.4809	90.811253	100.59506	100.16258
12.1450	12.1500	363	20	1392.8965	1159.6301	90.847287	99.750627	100.02545
12.1500	12.1550	278	21	1392.2450	1158.7825	90.675826	98.747641	99.888752
12.1550	12.1600	235	13	1391.5939	1157.9355	90.656611	97.746484	99.752200
12.1600	12.1650	171	13	1390.9433	1157.0897	91.181945	96.750803	99.616015
12.1650	12.1700	147	19	1390.2930	1156.2442	91.707079	95.755503	99.479883
12.1700	12.1750	115	13	1389.6431	1155.4000	91.754451	94.215643	99.343753
12.1750	12.1800	91	10	1388.9935	1154.5568	91.614705	92.463347	99.207697
12.1800	12.1850	101	8	1388.3441	1153.7134	91.451074	90.850853	99.071275
12.1850	12.1900	79	8	1387.6951	1152.8702	91.202083	89.739730	98.933636
12.1900	12.1950	79	5	1387.0462	1152.0271	90.953140	88.628819	98.796023
12.1950	12.2000	58	6	1386.3981	1151.1882	91.073735	87.505473	98.659158
12.2000	12.2050	70	6	1385.7505	1150.3513	91.339141	86.377847	98.522658
12.2050	12.2100	42	11	1385.1030	1149.5153	91.477120	85.341396	98.363765
12.2100	12.2150	54	6	1384.4567	1148.6840	91.159196	84.632784	98.125077
12.2150	12.2200	58	8	1383.8102	1147.8524	90.841151	83.923900	97.886298
12.2200	12.2250	43	5	1383.1647	1147.0230	90.874768	83.445028	97.055778
12.2250	12.2300	57	8	1382.5193	1146.1940	91.046149	83.056092	95.993179
12.2300	12.2350	60	2	1381.8743	1145.3657	91.179246	82.785807	94.730491
12.2350	12.2400	70	12	1381.2305	1144.5395	91.175320	82.940157	92.752040
12.2400	12.2450	82	10	1380.5865	1143.7130	91.171391	83.094565	90.772834
12.2450	12.2500	93	13	1379.9435	1142.8882	90.890029	83.579043	89.247633
12.2500	12.2550	105	15	1379.3006	1142.0637	90.499778	84.193147	87.899567
12.2550	12.2600	123	8	1378.6583	1141.2402	90.216237	84.667529	86.548811
12.2600	12.2650	166	13	1378.0167	1140.4184	90.314191	84.642577	85.186064
12.2650	12.2700	169	12	1377.3754	1139.5970	90.412107	84.617635	83.823836
12.2700	12.2750	212	13	1376.7348	1138.7771	90.206296	85.193069	82.854308
12.2750	12.2800	184	10	1376.0945	1137.9579	89.881364	86.003959	82.038888
12.2800	12.2850	186	17	1375.4542	1137.1391	89.670924	86.682775	81.219489
12.2850	12.2900	184	13	1374.8134	1136.3208	89.870779	86.888761	80.384945
12.2900	12.2950	161	12	1374.1727	1135.5028	90.070557	87.094668	79.550719
12.2950	12.3000	129	8	1373.4840	1134.6440	90.106528	87.126810	79.127014
12.3000	12.3050	136	5	1372.7767	1133.7697	90.078211	87.090758	78.864602
12.3050	12.3100	104	9	1372.0695	1132.8950	89.989912	87.103035	78.783003
12.3100	12.3150	85	6	1371.3633	1132.0201	89.686778	87.288451	79.349241
12.3150	12.3200	68	11	1370.6573	1131.1453	89.383702	87.473831	79.915370
12.3200	12.3250	54	6	1369.9518	1130.2722	89.275823	87.448705	80.626833
12.3250	12.3300	56	7	1369.2470	1129.4003	89.244636	87.340945	81.394977
12.3300	12.3350	57	7	1368.5422	1128.5287	89.163450	87.366408	82.169865
12.3350	12.3400	50	3	1367.8389	1127.6594	88.903223	87.869247	82.967565
12.3400	12.3450	35	3	1367.1353	1126.7897	88.642897	88.372277	83.765569
12.3450	12.3500	44	4	1366.4328	1125.9221	88.728212	88.310364	84.430397
12.3500	12.3550	44	6	1365.7306	1125.0550	88.949148	88.026807	85.043207
12.3550	12.3600	31	6	1365.0287	1124.1884	89.046409	87.816527	85.497031
12.3600	12.3650	31	3	1364.3280	1123.3243	88.700551	87.868824	85.381155
