# do not edit -- automatically generated Mon Aug 27 17:14:16 2018 from /susfu/kashyap/solar/ISSI/Capella_O7/binned_14t18.pro
# 
# events in wavelength region [14.00,18.00] Ang
# 
# BACKSCAL = 15.6250
#columns are:
#WLOW: wavelength grid bin lower bound [Angstrom]
#WHIGH: wavelength grid bin upper bound [Angstrom]
#SRCCT: counts in bin [ct]
#BKGCT: background counts in bin [ct]
#EA{p|n}_OBSID: effective area for each ObsID [cm^2 ksec]
WLOW	WHIGH	SRCCT	BKGCT	EAn_00055	EAn_01225	EAn_08319	EAn_18358	EAn_18360	EAn_18362
N	N	N	N	N	N	N	N	N	N
14.0000	14.0050	51	8	1125.8643	132.57972	708.79366	62.511671	63.177431	61.914448
14.0050	14.0100	46	5	1126.0330	132.40218	705.54152	62.416337	63.081740	61.819548
14.0100	14.0150	73	5	1125.0433	132.24654	703.71017	62.320496	62.985419	61.724129
14.0150	14.0200	61	6	1124.0540	132.09095	701.87953	62.224691	62.889135	61.628747
14.0200	14.0250	77	5	1124.2384	132.40672	696.19770	62.128955	62.792886	61.533373
14.0250	14.0300	103	8	1124.8638	132.89956	689.06939	62.033251	62.696658	61.438008
14.0300	14.0350	92	9	1125.5508	133.27426	682.63905	61.937544	62.600471	61.342725
14.0350	14.0400	76	6	1126.4487	133.24649	678.58223	61.841727	62.504325	61.247616
14.0400	14.0450	98	7	1127.3463	133.21873	674.52695	61.745946	62.408215	61.152543
14.0450	14.0500	90	8	1126.5657	133.17033	667.30417	61.650431	62.312223	61.057501
14.0500	14.0550	95	8	1125.1550	133.11421	658.89498	61.555065	62.216326	60.962519
14.0550	14.0600	83	7	1124.2351	133.12220	649.81560	61.457868	62.118664	60.865783
14.0600	14.0650	72	5	1124.9875	133.34845	638.47003	61.354602	62.015158	60.763234
14.0650	14.0700	76	8	1125.7399	133.57470	627.12446	61.251335	61.911653	60.660684
14.0700	14.0750	68	8	1124.9976	133.41493	620.54775	61.148522	61.808485	60.558461
14.0750	14.0800	70	10	1123.6937	133.11013	615.76725	61.045934	61.705498	60.456414
14.0800	14.0850	76	7	1122.4537	132.87338	611.98014	60.943575	61.602745	60.354620
14.0850	14.0900	66	3	1121.4331	132.86886	611.58379	60.842170	61.500965	60.253861
14.0900	14.0950	57	5	1120.4121	132.86435	611.18729	60.740727	61.399146	60.153064
14.0950	14.1000	49	9	1120.9906	132.56670	613.71375	60.640920	61.299002	60.053820
14.1000	14.1050	45	8	1122.1702	132.15885	617.33907	60.541696	61.199454	59.955126
14.1050	14.1100	49	11	1122.7162	131.88041	620.85585	60.442703	61.100125	59.856661
14.1100	14.1150	62	10	1121.1013	132.04343	624.00180	60.344524	61.001561	59.758995
14.1150	14.1200	54	2	1119.4858	132.20651	627.14895	60.246307	60.902959	59.661291
14.1200	14.1250	57	6	1118.7330	132.25264	631.01778	60.148500	60.805022	59.563974
14.1250	14.1300	76	5	1118.3040	132.25482	635.15999	60.050796	60.707284	59.466752
14.1300	14.1350	51	7	1118.0541	132.20789	639.36981	59.953284	60.609623	59.369702
14.1350	14.1400	61	9	1118.4143	131.99338	643.81734	59.856265	60.512063	59.273080
14.1400	14.1450	47	1	1118.7745	131.77895	648.26316	59.759283	60.414541	59.176495
14.1450	14.1500	84	10	1117.9363	131.79830	653.00748	59.662466	60.317153	59.079995
14.1500	14.1550	67	7	1116.6474	131.90560	657.86374	59.565719	60.219824	58.983535
14.1550	14.1600	81	8	1115.7203	131.96082	663.31458	59.468074	60.121608	58.886204
14.1600	14.1650	97	7	1116.0282	131.83824	670.80167	59.367262	60.020262	58.785798
14.1650	14.1700	116	12	1116.3359	131.71571	678.28591	59.266488	59.918955	58.685430
14.1700	14.1750	134	8	1115.9423	131.55036	683.61691	59.166121	59.817959	58.585375
14.1750	14.1800	133	14	1115.2850	131.36900	688.13503	59.065959	59.717133	58.485491
14.1800	14.1850	221	21	1114.5634	131.23163	693.65643	58.965878	59.616406	58.385696
14.1850	14.1900	221	25	1113.6241	131.24440	702.58786	58.866239	59.516189	58.286375
14.1900	14.1950	281	24	1112.6848	131.25717	711.51928	58.766601	59.415972	58.187054
14.1950	14.2000	291	26	1112.5172	131.14679	722.49799	58.667850	59.316520	58.088543
14.2000	14.2050	318	16	1112.6401	130.99012	734.24149	58.569485	59.217408	57.990389
14.2050	14.2100	323	24	1112.4236	130.89584	744.75531	58.471365	59.118575	57.892488
14.2100	14.2150	327	24	1111.0493	131.01461	751.05609	58.374245	59.020861	57.795611
14.2150	14.2200	287	27	1109.6745	131.13342	757.35927	58.277089	58.923110	57.698697
14.2200	14.2250	233	19	1109.2666	131.09661	758.53317	58.182285	58.827620	57.604071
14.2250	14.2300	200	11	1109.2219	131.00129	757.77929	58.088334	58.732948	57.510272
14.2300	14.2350	187	19	1109.0202	130.95409	755.57633	57.994472	58.638385	57.416578
14.2350	14.2400	188	18	1108.2825	131.07110	748.42846	57.900934	58.544211	57.323256
14.2400	14.2450	145	15	1107.5446	131.18815	741.27787	57.807360	58.450001	57.229899
14.2450	14.2500	165	10	1106.6611	131.02819	734.03437	57.714168	58.356104	57.136906
14.2500	14.2550	141	13	1105.7224	130.76386	726.75209	57.621071	58.262275	57.044001
14.2550	14.2600	140	8	1105.1344	130.57164	719.34974	57.528121	58.168551	56.951270
14.2600	14.2650	126	12	1105.7433	130.62545	711.52480	57.435519	58.075025	56.858972
14.2650	14.2700	122	7	1106.3521	130.67924	703.70284	57.342952	57.981535	56.766710
14.2700	14.2750	115	7	1105.6556	130.60890	701.95286	57.250722	57.888482	56.674688
14.2750	14.2800	94	9	1104.4678	130.49184	702.48942	57.158625	57.795601	56.582763
14.2800	14.2850	70	9	1103.4618	130.41004	703.76621	57.066172	57.702351	56.490491
14.2850	14.2900	63	5	1103.0762	130.44875	707.57494	56.972406	57.607747	56.396940
14.2900	14.2950	59	1	1102.6908	130.48744	711.38223	56.878675	57.513179	56.303425
14.2950	14.3000	53	8	1102.3132	130.41564	717.71510	56.784312	57.418077	56.209197
14.3000	14.3050	55	6	1101.9386	130.30228	724.99598	56.689762	57.322825	56.114750
14.3050	14.3100	72	3	1101.3067	130.21568	732.44733	56.595090	57.227479	56.020192
14.3100	14.3150	50	2	1099.7970	130.22063	740.46807	56.500158	57.131979	55.925419
14.3150	14.3200	46	5	1098.2873	130.22557	748.48881	56.405227	57.036478	55.830647
14.3200	14.3250	55	9	1097.4838	130.02543	757.47043	56.310700	56.941372	55.736043
14.3250	14.3300	56	6	1096.9466	129.74813	766.80937	56.216375	56.846465	55.641553
14.3300	14.3350	79	9	1096.6764	129.51230	777.10194	56.121506	56.751066	55.546621
14.3350	14.3400	101	13	1097.3183	129.41856	790.63497	56.024936	56.654142	55.450339
14.3400	14.3450	102	10	1097.9605	129.32479	804.17317	55.928330	56.557182	55.354020
14.3450	14.3500	110	13	1097.0243	129.35240	813.16268	55.829657	56.458027	55.255433
14.3500	14.3550	143	7	1095.4936	129.42572	820.44245	55.730172	56.358013	55.155959
14.3550	14.3600	132	13	1094.1399	129.44744	826.78127	55.630759	56.258077	55.056622
14.3600	14.3650	165	17	1093.3914	129.29286	829.90393	55.531606	56.158426	54.957774
14.3650	14.3700	164	15	1092.6427	129.13822	833.02778	55.432415	56.058738	54.858888
14.3700	14.3750	146	19	1091.7865	128.97533	833.49601	55.333657	55.959447	54.760469
14.3750	14.3800	158	13	1090.8894	128.80925	832.96438	55.235011	55.860254	54.662174
14.3800	14.3850	139	12	1089.9872	128.64270	832.38200	55.136526	55.761228	54.564053
14.3850	14.3900	131	6	1089.0662	128.47425	831.62520	55.038428	55.662605	54.466361
14.3900	14.3950	124	12	1088.1455	128.30587	830.86869	54.940367	55.564020	54.368706
14.3950	14.4000	109	7	1087.2632	128.32923	830.10257	54.842235	55.465286	54.270944
14.4000	14.4050	111	8	1086.3956	128.42484	829.33289	54.744083	55.366504	54.173149
14.4050	14.4100	121	7	1085.4619	128.44319	828.55444	54.645619	55.267418	54.075055
14.4100	14.4150	95	6	1084.3012	128.19719	827.74518	54.545986	55.167192	53.975837
14.4150	14.4200	101	8	1083.1411	127.95128	826.93622	54.446392	55.067005	53.876658
14.4200	14.4250	100	8	1082.4563	127.80456	826.17826	54.348288	54.968303	53.778933
14.4250	14.4300	85	8	1081.9511	127.69531	825.43991	54.250796	54.870211	53.681807
14.4300	14.4350	84	2	1081.4396	127.58120	824.68788	54.153376	54.772208	53.584803
14.4350	14.4400	75	8	1080.9073	127.45067	823.89036	54.056366	54.674671	53.488374
14.4400	14.4450	63	3	1080.3751	127.32013	823.09284	53.959355	54.577134	53.391946
14.4450	14.4500	75	11	1079.2627	127.07059	822.33385	53.859245	54.480070	53.295821
14.4500	14.4550	61	4	1077.9322	126.77628	821.58979	53.758017	54.383234	53.199862
14.4550	14.4600	72	7	1076.8045	126.56391	820.83781	53.635103	54.285959	53.103491
14.4600	14.4650	61	11	1076.3729	126.63223	820.05995	53.438200	54.187345	53.005873
14.4650	14.4700	72	8	1075.9412	126.70058	819.28180	53.241221	54.088693	52.908219
14.4700	14.4750	65	9	1074.2552	126.75734	818.49787	53.053074	53.990424	52.810828
14.4750	14.4800	69	9	1072.0960	126.80976	817.71149	52.868194	53.892267	52.713504
14.4800	14.4850	60	11	1070.3110	126.76785	816.93631	52.579952	53.794277	52.616384
14.4850	14.4900	68	6	1069.8066	126.40325	816.19960	51.938162	53.696880	52.519980
14.4900	14.4950	59	7	1069.3020	126.03851	815.46260	51.296126	53.599445	52.423539
14.4950	14.5000	63	5	1068.2368	125.97469	814.71296	50.786350	53.503414	52.328501
14.5000	14.5050	82	8	1066.9597	126.02430	813.95815	50.326176	53.407862	52.233943
14.5050	14.5100	76	5	1065.7577	126.10416	813.20981	49.887221	53.312734	52.139803
14.5100	14.5150	91	5	1064.8105	126.28769	812.48233	49.520151	53.218896	52.046937
14.5150	14.5200	103	10	1063.8636	126.47116	811.75513	49.153221	53.125095	51.954106
14.5200	14.5250	109	16	1062.9093	126.14784	811.03644	48.564629	53.031661	51.861617
14.5250	14.5300	123	10	1061.9523	125.63326	810.32101	47.892414	52.938373	51.769264
14.5300	14.5350	155	11	1060.6923	125.16761	809.60237	47.330124	52.845221	51.677053
14.5350	14.5400	130	6	1058.3927	124.86906	808.87194	47.143831	52.752437	51.585236
14.5400	14.5450	142	6	1056.0940	124.57062	808.14179	46.957609	52.659689	51.493453
14.5450	14.5500	128	10	1054.4822	124.48484	807.40977	46.603156	52.567054	51.401779
14.5500	14.5550	130	8	1053.1305	124.47933	806.67743	46.185417	52.474510	51.310193
14.5550	14.5600	122	11	1051.9692	124.44432	805.94330	45.938931	52.381980	51.218562
14.5600	14.5650	84	9	1051.4616	124.30841	805.20428	46.279029	52.289654	51.126930
14.5650	14.5700	84	8	1050.9541	124.17250	804.46525	46.619126	52.197328	51.035298
14.5700	14.5750	85	9	1048.7534	123.96710	803.72747	46.721763	52.105137	50.944020
14.5750	14.5800	77	13	1045.9145	123.73557	802.99054	46.734655	52.013046	50.852923
14.5800	14.5850	76	10	1043.3636	123.54198	802.25389	46.775099	51.921071	50.761917
14.5850	14.5900	73	5	1041.8032	123.47862	801.51947	46.909795	51.829646	50.671372
14.5900	14.5950	63	4	1040.2422	123.41524	800.78477	47.044543	51.738187	50.580792
14.5950	14.6000	53	8	1038.6338	123.45484	800.03949	47.084297	51.646246	50.489805
14.6000	14.6050	53	4	1037.0068	123.53329	799.28998	47.088235	51.554092	50.398633
14.6050	14.6100	54	7	1034.7952	123.54100	798.53715	47.051990	51.461810	50.307342
14.6100	14.6150	54	3	1030.5807	123.30635	797.77314	46.878080	51.369107	50.215659
14.6150	14.6200	46	7	1026.3646	123.07160	797.00884	46.704103	51.276368	50.123942
14.6200	14.6250	41	2	1023.3881	122.82312	796.25750	46.763728	51.184752	50.033327
14.6250	14.6300	43	6	1020.8780	122.56932	795.51065	46.911583	51.093512	49.943081
14.6300	14.6350	48	3	1017.2842	122.32809	794.76526	47.015743	50.984052	49.853022
14.6350	14.6400	66	8	1009.9711	122.12948	794.02358	46.970387	50.811986	49.763455
14.6400	14.6450	52	5	1002.6608	121.93096	793.28219	46.925049	50.639986	49.673922
14.6450	14.6500	65	7	993.95703	121.32362	792.54223	46.959991	50.291914	49.584828
14.6500	14.6550	66	5	984.72759	120.56191	791.80286	47.025256	49.877357	49.495907
14.6550	14.6600	62	7	976.62123	119.90833	791.06409	47.073640	49.397947	49.407088
14.6600	14.6650	74	6	972.35919	119.62505	790.32657	47.064159	48.695566	49.318528
14.6650	14.6700	85	10	968.09878	119.34189	789.58933	47.054681	47.993452	49.230002
14.6700	14.6750	63	3	966.04069	118.46850	788.85285	46.992612	47.426236	49.141803
14.6750	14.6800	58	9	964.81550	117.37264	788.11705	46.910711	46.910269	49.053773
14.6800	14.6850	50	7	965.17614	116.26750	787.37677	46.848035	46.362716	48.965155
14.6850	14.6900	42	8	970.96990	115.13241	786.62240	46.851337	45.707861	48.874670
14.6900	14.6950	42	5	976.76365	113.99731	785.86802	46.854639	45.053007	48.784184
14.6950	14.7000	52	4	986.85152	113.03699	785.10461	46.705862	44.474572	48.693053
14.7000	14.7050	45	4	998.55717	112.14325	784.33819	46.499682	43.925326	48.601725
14.7050	14.7100	34	7	1011.1161	111.56743	783.57171	46.353968	43.498365	48.510383
14.7100	14.7150	57	10	1026.5782	112.08226	782.80634	46.415744	43.491245	48.419148
14.7150	14.7200	39	7	1042.0463	112.59728	782.04067	46.477543	43.484122	48.327879
14.7200	14.7250	49	4	1052.8773	113.58602	781.27636	46.391617	43.569062	48.014942
14.7250	14.7300	67	7	1061.9607	114.75399	780.51232	46.249873	43.688797	47.618188
14.7300	14.7350	61	8	1070.0882	116.19437	779.74891	46.140431	43.832110	47.115515
14.7350	14.7400	67	7	1074.9355	118.56884	778.98780	46.141804	44.056267	46.249637
14.7400	14.7450	61	11	1079.7847	120.94421	778.22640	46.143177	44.280509	45.383428
14.7450	14.7500	44	3	1083.0939	122.67574	777.26737	46.077091	44.452130	44.558953
14.7500	14.7550	44	8	1085.8227	124.16480	776.23313	45.985472	44.603950	43.749820
14.7550	14.7600	53	4	1087.8299	125.55788	775.22455	45.869159	44.719631	42.971311
14.7600	14.7650	55	3	1087.3647	126.62400	774.30226	45.667924	44.711509	42.296558
14.7650	14.7700	43	9	1086.8997	127.68972	773.38033	45.466765	44.703390	41.622062
14.7700	14.7750	38	4	1086.3482	128.05775	772.58462	45.430721	44.627723	41.088231
14.7750	14.7800	40	2	1085.7642	128.16196	771.83669	45.457111	44.526522	40.607625
14.7800	14.7850	32	5	1085.1726	128.22623	771.08894	45.476016	44.463018	40.286294
14.7850	14.7900	40	4	1084.5545	128.15339	770.34105	45.469232	44.528935	40.511722
14.7900	14.7950	38	6	1083.9366	128.08058	769.59344	45.462451	44.594827	40.737063
14.7950	14.8000	37	3	1083.3191	128.00781	768.84247	45.366714	44.732139	41.082151
14.8000	14.8050	34	7	1082.7019	127.93510	768.09062	45.237387	44.896388	41.472339
14.8050	14.8100	31	5	1082.0847	127.86237	767.33799	45.112137	44.981226	41.841166
14.8100	14.8150	52	6	1081.4682	127.78974	766.58391	45.001081	44.793583	42.136108
14.8150	14.8200	33	4	1080.8516	127.71710	765.82984	44.890026	44.605939	42.431049
14.8200	14.8250	37	6	1080.2346	127.64441	765.07784	44.740581	44.534848	42.664454
14.8250	14.8300	49	5	1079.6178	127.57175	764.32704	44.576692	44.507886	42.874456
14.8300	14.8350	31	6	1078.9959	127.49849	763.57352	44.461737	44.491286	43.033015
14.8350	14.8400	36	2	1078.3579	127.42331	762.81195	44.514869	44.510271	43.014805
14.8400	14.8450	43	1	1077.7196	127.34811	762.05010	44.568021	44.529262	42.996587
14.8450	14.8500	32	7	1077.0822	127.27301	761.29053	44.538997	44.492329	43.051618
14.8500	14.8550	28	3	1076.4448	127.19791	760.53156	44.478900	44.434244	43.134355
14.8550	14.8600	37	2	1075.8077	127.12285	759.77322	44.411706	44.393561	43.179019
14.8600	14.8650	41	9	1075.1715	127.04790	759.01714	44.320156	44.412645	43.092937
14.8650	14.8700	41	4	1074.5350	126.97292	758.26077	44.228570	44.431736	43.006822
14.8700	14.8750	50	6	1073.8993	126.89802	757.50635	44.155748	44.358025	42.958210
14.8750	14.8800	36	4	1073.2636	126.82312	756.75228	44.089987	44.249160	42.923764
14.8800	14.8850	33	3	1072.6248	126.74785	755.99648	44.017172	44.185297	42.889693
14.8850	14.8900	36	9	1071.9744	126.67119	755.23350	43.920002	44.275917	42.856858
14.8900	14.8950	58	7	1071.3241	126.59457	754.47081	43.822869	44.366503	42.824035
14.8950	14.9000	44	8	1070.6617	126.51650	753.70110	43.774512	44.303818	42.757718
14.9000	14.9050	61	4	1069.9948	126.43790	752.92878	43.744620	44.183124	42.678728
14.9050	14.9100	66	8	1069.3293	126.35946	752.15609	43.681834	44.066220	42.601391
14.9100	14.9150	53	3	1068.6677	126.28151	751.38134	43.505853	43.962228	42.529660
14.9150	14.9200	46	2	1068.0065	126.20359	750.60689	43.329940	43.858276	42.457957
14.9200	14.9250	60	13	1067.3454	126.12569	749.83130	43.319111	43.773454	42.375408
14.9250	14.9300	56	6	1066.6847	126.04784	749.05571	43.370783	43.695917	42.288797
14.9300	14.9350	55	9	1066.0240	125.96998	748.28036	43.388712	43.624979	42.199178
14.9350	14.9400	66	4	1065.3645	125.89224	747.50720	43.290748	43.576819	42.099385
14.9400	14.9450	72	10	1064.7050	125.81450	746.73404	43.192784	43.528659	41.999592
14.9450	14.9500	83	9	1064.0454	125.73677	745.96068	43.075450	43.494340	41.938801
14.9500	14.9550	82	7	1063.3861	125.65909	745.18765	42.950842	43.465282	41.892812
14.9550	14.9600	116	9	1062.7260	125.58130	744.41022	42.855871	43.410162	41.840182
14.9600	14.9650	140	12	1062.0642	125.50333	743.61894	42.862873	43.265608	41.764827
14.9650	14.9700	178	17	1061.4021	125.42533	742.82737	42.869877	43.120998	41.689444
14.9700	14.9750	204	21	1060.7366	125.34691	742.03286	42.701373	43.048670	41.651761
14.9750	14.9800	236	10	1060.0695	125.26831	741.23696	42.466395	43.003671	41.628333
14.9800	14.9850	314	26	1059.4018	125.18963	740.44099	42.287387	42.938432	41.584642
14.9850	14.9900	417	21	1058.7320	125.11070	739.64494	42.300857	42.803614	41.471290
14.9900	14.9950	426	32	1058.0619	125.03173	738.84859	42.314333	42.668744	41.357896
14.9950	15.0000	527	29	1057.3927	124.95289	738.06751	42.239219	42.531142	41.275699
15.0000	15.0050	624	32	1056.7235	124.87406	737.29182	42.130505	42.392433	41.205277
15.0050	15.0100	661	35	1056.0548	124.79528	736.52102	42.026841	42.294056	41.144602
15.0100	15.0150	683	31	1055.3865	124.71654	735.76575	41.940374	42.334252	41.117355
15.0150	15.0200	665	42	1054.7186	124.63783	735.01077	41.853940	42.374433	41.090119
15.0200	15.0250	626	34	1054.0512	124.55919	734.25728	41.799895	42.262357	41.020821
15.0250	15.0300	538	31	1053.3841	124.48058	733.50442	41.758123	42.092619	40.935596
15.0300	15.0350	414	22	1052.7173	124.40202	732.75223	41.670827	41.943407	40.868282
15.0350	15.0400	333	23	1052.0511	124.32352	732.00159	41.426740	41.864696	40.862552
15.0400	15.0450	276	20	1051.3852	124.24505	731.25125	41.182747	41.786015	40.856825
15.0450	15.0500	230	11	1050.7192	124.16660	730.50192	41.157330	41.714100	40.772266
15.0500	15.0550	198	14	1050.0536	124.08819	729.75338	41.214787	41.644787	40.657866
15.0550	15.0600	182	13	1049.3881	124.00979	729.00522	41.225929	41.582231	40.557861
15.0600	15.0650	140	10	1048.7233	123.93145	728.25888	41.077592	41.542981	40.507481
15.0650	15.0700	136	10	1048.0586	123.85314	727.51268	40.929283	41.503738	40.457110
15.0700	15.0750	144	11	1047.3944	123.77486	726.76787	40.780539	41.425821	40.387154
15.0750	15.0800	147	16	1046.7307	123.69663	726.02398	40.631708	41.333276	40.309806
15.0800	15.0850	122	10	1046.0671	123.61840	725.28032	40.523896	41.239858	40.223577
15.0850	15.0900	130	9	1045.4044	123.54031	724.53877	40.557461	41.143594	40.106928
15.0900	15.0950	105	7	1044.7415	123.46219	723.79694	40.591039	41.047293	39.990235
15.0950	15.1000	82	3	1044.0794	123.38416	723.04453	40.448570	41.019273	39.941015
15.1000	15.1050	88	11	1043.4174	123.30615	722.28788	40.239340	41.017119	39.917349
15.1050	15.1100	60	3	1042.7557	123.22817	721.52790	40.072050	40.979640	39.878762
15.1100	15.1150	51	9	1042.0948	123.15030	720.75664	40.049167	40.820566	39.788820
15.1150	15.1200	54	8	1041.4337	123.07241	719.98509	40.026275	40.661431	39.698844
15.1200	15.1250	44	7	1040.7734	122.99460	719.21581	39.918387	40.596337	39.611465
15.1250	15.1300	48	5	1040.1130	122.91679	718.44699	39.778219	40.566860	39.525025
15.1300	15.1350	60	2	1039.4529	122.83901	717.67676	39.666398	40.527660	39.437985
15.1350	15.1400	48	7	1038.7925	122.76119	716.90035	39.652000	40.454908	39.348732
15.1400	15.1450	40	8	1038.1324	122.68341	716.12424	39.637606	40.382185	39.259514
15.1450	15.1500	65	5	1037.4727	122.60567	715.34814	39.544568	40.269947	39.165686
15.1500	15.1550	69	9	1036.8132	122.52795	714.57211	39.421694	40.142724	39.070115
15.1550	15.1600	50	14	1036.1539	122.45027	713.79671	39.316292	40.027787	38.986268
15.1600	15.1650	67	14	1035.4952	122.37265	713.02267	39.271022	39.955093	38.942753
15.1650	15.1700	92	12	1034.8366	122.29505	712.24893	39.225769	39.882426	38.899255
15.1700	15.1750	70	10	1034.1785	122.21751	711.47304	39.123543	39.811911	38.793013
15.1750	15.1800	95	7	1033.5210	122.14003	710.69674	38.999757	39.742249	38.663023
15.1800	15.1850	88	8	1032.8635	122.06255	709.67295	38.874184	39.679189	38.559082
15.1850	15.1900	107	6	1032.2065	121.98513	707.79715	38.742540	39.638922	38.544963
