# do not edit -- automatically generated Wed Aug 21 13:05:38 2019 from /susfu/kashyap/solar/ISSI/Capella_O7/binned_11t18.pro
# 
# events in wavelength region [14.00,18.00] Ang
# 
# BACKSCAL = 15.6250
#columns are:
#WLOW: wavelength grid bin lower bound [Angstrom]
#WHIGH: wavelength grid bin upper bound [Angstrom]
#SRCCT: counts in bin [ct]
#BKGCT: background counts in bin [ct]
#EA{p|n}_OBSID: effective area for each ObsID [cm^2 ksec]
WLOW	WHIGH	SRCCT	BKGCT	EAp_00055	EAp_08319	EAp_18358	EAp_18360	EAp_18362
N	N	N	N	N	N	N	N	N
14.0000	14.0050	91	12	1914.4527	1435.0510	88.818487	85.504727	86.017482
14.0050	14.0100	95	13	1907.6435	1434.4374	88.663706	84.929266	87.316901
14.0100	14.0150	118	11	1897.0599	1433.8967	88.397761	84.157698	88.706311
14.0150	14.0200	123	13	1886.4804	1433.3561	88.131918	83.386425	90.095192
14.0200	14.0250	132	11	1871.4432	1433.0075	88.053046	82.916804	90.831645
14.0250	14.0300	135	15	1854.6196	1432.7359	88.049154	82.568179	91.306422
14.0300	14.0350	158	8	1836.0739	1432.4532	87.970274	82.233483	91.655980
14.0350	14.0400	163	14	1811.1682	1432.1299	87.615252	81.949697	91.544951
14.0400	14.0450	143	20	1786.2721	1431.8066	87.260366	81.666019	91.433964
14.0450	14.0500	157	18	1761.1371	1431.4327	87.212745	82.132401	91.324712
14.0500	14.0550	124	13	1735.9197	1431.0385	87.288391	82.899372	91.216215
14.0550	14.0600	149	14	1713.1631	1430.5955	87.274867	83.706503	91.105102
14.0600	14.0650	145	10	1699.4908	1429.9736	86.933664	84.659779	90.984571
14.0650	14.0700	149	13	1685.8185	1429.3517	86.592461	85.613055	90.864040
14.0700	14.0750	132	11	1682.4883	1428.6297	86.446115	86.369234	90.745642
14.0750	14.0800	100	15	1683.3104	1427.8680	86.378047	87.045912	90.628164
14.0800	14.0850	110	13	1685.2691	1427.1074	86.270311	87.794361	90.510800
14.0850	14.0900	84	13	1691.4056	1426.3520	86.016838	88.805502	90.394069
14.0900	14.0950	92	12	1697.5445	1425.5963	85.763269	89.817029	90.277292
14.0950	14.1000	94	15	1709.7466	1424.8225	85.415924	90.448190	90.159418
14.1000	14.1050	106	11	1724.3848	1424.0412	85.030847	90.927010	90.041063
14.1050	14.1100	94	11	1738.2715	1423.2804	84.689572	91.310820	89.921892
14.1100	14.1150	107	8	1749.3874	1422.5955	84.509701	91.344605	89.799740
14.1150	14.1200	95	10	1760.5075	1421.9104	84.329760	91.378403	89.677540
14.1200	14.1250	114	10	1767.4463	1421.2285	83.874063	91.301884	89.562547
14.1250	14.1300	108	11	1772.7100	1420.5477	83.307410	91.181033	89.450385
14.1300	14.1350	95	17	1777.6560	1419.8551	82.882210	91.061452	89.337635
14.1350	14.1400	104	12	1781.4404	1419.1183	82.977317	90.946331	89.222520
14.1400	14.1450	106	14	1785.2232	1418.3818	83.072387	90.831254	89.107448
14.1450	14.1500	102	12	1788.4459	1417.6610	82.913302	90.718132	88.993236
14.1500	14.1550	133	6	1791.4432	1416.9467	82.652124	90.605803	88.879379
14.1550	14.1600	142	9	1794.1463	1416.2183	82.341107	90.491710	88.764559
14.1600	14.1650	150	16	1795.7668	1415.4373	81.845859	90.370985	88.646062
14.1650	14.1700	192	20	1797.3866	1414.6566	81.350800	90.250305	88.527611
14.1700	14.1750	218	18	1800.4031	1413.8943	81.013731	90.124436	88.409070
14.1750	14.1800	266	30	1803.9790	1413.1397	80.740323	89.996548	88.290556
14.1800	14.1850	338	30	1806.6955	1412.3794	80.344918	89.871003	88.172676
14.1850	14.1900	429	35	1806.2425	1411.5993	79.501019	89.754306	88.057338
14.1900	14.1950	473	37	1805.7894	1410.8191	78.657120	89.637609	87.942001
14.1950	14.2000	542	49	1807.3482	1410.0797	78.755022	89.516124	87.822454
14.2000	14.2050	543	50	1809.7150	1409.3572	79.231490	89.392779	87.701279
14.2050	14.2100	623	47	1811.8295	1408.6475	79.618949	89.270543	87.579582
14.2100	14.2150	513	33	1813.0096	1407.9860	79.677573	89.152612	87.456180
14.2150	14.2200	434	38	1814.1902	1407.3244	79.736220	89.034636	87.332730
14.2200	14.2250	391	36	1815.2252	1406.7072	80.379428	88.914403	87.211006
14.2250	14.2300	291	24	1816.2020	1406.1077	81.257610	88.793221	87.089933
14.2300	14.2350	268	25	1817.2586	1405.5191	82.025258	88.673361	86.968929
14.2350	14.2400	226	23	1818.6090	1404.9707	82.385067	88.558397	86.848207
14.2400	14.2450	247	17	1819.9600	1404.4221	82.745014	88.443388	86.727438
14.2450	14.2500	202	18	1820.1520	1403.8264	83.331488	88.328664	86.612134
14.2500	14.2550	239	20	1819.8780	1403.2115	84.009389	88.213993	86.498967
14.2550	14.2600	193	19	1819.8069	1402.5968	84.671655	88.099667	86.384836
14.2600	14.2650	216	17	1820.4847	1401.9818	85.277375	87.986411	86.266945
14.2650	14.2700	198	10	1821.1622	1401.3672	85.882863	87.873198	86.149099
14.2700	14.2750	177	16	1822.7007	1400.7713	86.076040	87.762129	86.032585
14.2750	14.2800	136	17	1824.5856	1400.1831	86.103312	87.651930	85.916618
14.2800	14.2850	148	18	1825.7221	1399.5780	86.133954	87.538000	85.800093
14.2850	14.2900	105	11	1824.0939	1398.9097	86.177084	87.410150	85.681384
14.2900	14.2950	99	10	1822.4663	1398.2417	86.220198	87.282350	85.562720
14.2950	14.3000	87	9	1823.3085	1397.5383	86.155329	87.159881	85.443174
14.3000	14.3050	74	13	1825.1445	1396.8209	86.047030	87.039622	85.323337
14.3050	14.3100	83	15	1826.4749	1396.1007	85.936875	86.920344	85.204088
14.3100	14.3150	91	7	1825.9371	1395.3710	85.820064	86.804894	85.087228
14.3150	14.3200	98	15	1825.3993	1394.6412	85.703253	86.689445	84.970368
14.3200	14.3250	102	11	1825.0805	1393.8934	85.593464	86.574354	84.853997
14.3250	14.3300	112	19	1824.8501	1393.1386	85.486563	86.459470	84.737885
14.3300	14.3350	121	26	1824.9864	1392.3887	85.376393	86.344475	84.621284
14.3350	14.3400	162	16	1826.4770	1391.6579	85.254350	86.229279	84.503086
14.3400	14.3450	150	20	1827.9682	1390.9268	85.132260	86.114039	84.384842
14.3450	14.3500	169	16	1828.0860	1390.1500	85.009929	85.989298	84.257427
14.3500	14.3550	199	13	1827.6512	1389.3546	84.887459	85.860691	84.126278
14.3550	14.3600	198	18	1827.0814	1388.5595	84.765479	85.732882	83.996805
14.3600	14.3650	225	25	1826.0130	1387.7660	84.645331	85.608046	83.873553
14.3650	14.3700	261	22	1824.9442	1386.9722	84.525137	85.483162	83.750254
14.3700	14.3750	278	23	1825.6143	1386.1311	84.403284	85.363198	83.627307
14.3750	14.3800	274	25	1826.9848	1385.2706	84.280697	85.245150	83.504436
14.3800	14.3850	235	26	1827.8603	1384.4131	84.158359	85.126232	83.381328
14.3850	14.3900	195	21	1826.9073	1383.5654	84.036720	85.003881	83.257123
14.3900	14.3950	201	16	1825.9547	1382.7179	83.915127	84.881577	83.132964
14.3950	14.4000	179	13	1826.8305	1381.9249	83.792918	84.760430	83.013058
14.4000	14.4050	177	16	1828.4428	1381.1538	83.670471	84.639758	82.894873
14.4050	14.4100	158	21	1829.2161	1380.4027	83.551245	84.517633	82.775981
14.4100	14.4150	168	19	1826.8845	1379.7248	83.443809	84.389996	82.654338
14.4150	14.4200	155	15	1824.5537	1379.0473	83.336414	84.262407	82.532742
14.4200	14.4250	162	18	1823.9408	1378.4165	83.225505	84.137393	82.412568
14.4250	14.4300	160	11	1824.0205	1377.8049	83.113239	84.013484	82.293032
14.4300	14.4350	139	17	1824.3735	1377.1916	83.000223	83.889873	82.174010
14.4350	14.4400	126	18	1825.7362	1376.5730	82.884633	83.767587	82.057102
14.4400	14.4450	128	9	1827.0989	1375.9543	82.769042	83.645300	81.940195
14.4450	14.4500	126	11	1826.6063	1375.3090	82.651186	83.531091	81.823215
14.4500	14.4550	130	16	1825.3658	1374.6533	82.532478	83.420201	81.706269
14.4550	14.4600	113	18	1824.1943	1373.9789	82.414030	83.307847	81.589704
14.4600	14.4650	120	13	1823.2811	1373.2365	82.296754	83.190277	81.474762
14.4650	14.4700	115	11	1822.3674	1372.4938	82.179434	83.072662	81.359776
14.4700	14.4750	114	10	1822.9588	1371.7233	82.065748	82.951651	81.232065
14.4750	14.4800	126	14	1824.1571	1370.9412	81.953488	82.829229	81.099181
14.4800	14.4850	96	9	1824.6624	1370.1605	81.840082	82.705973	80.966166
14.4850	14.4900	107	16	1822.6019	1369.3849	81.722453	82.579650	80.832696
14.4900	14.4950	123	12	1820.5405	1368.6091	81.604780	82.453279	80.699174
14.4950	14.5000	107	11	1821.1684	1367.8334	81.494473	82.326754	80.573298
14.5000	14.5050	100	13	1822.8812	1367.0575	81.387077	82.200099	80.450438
14.5050	14.5100	127	4	1824.0199	1366.2997	81.277680	82.076563	80.330269
14.5100	14.5150	159	16	1823.0333	1365.6076	81.160666	81.964362	80.219853
14.5150	14.5200	142	15	1822.0470	1364.9158	81.043698	81.852204	80.109479
14.5200	14.5250	179	22	1821.6904	1364.2683	80.925839	81.744822	80.021736
14.5250	14.5300	222	25	1821.5881	1363.6389	80.807630	81.639376	79.943138
14.5300	14.5350	241	17	1821.6113	1363.0112	80.690585	81.530550	79.864129
14.5350	14.5400	263	20	1822.1001	1362.3899	80.577736	81.409068	79.783511
14.5400	14.5450	221	14	1822.5887	1361.7687	80.464929	81.287632	79.702924
14.5450	14.5500	198	11	1821.4511	1361.0793	80.352992	81.165769	79.612473
14.5500	14.5550	209	13	1819.6576	1360.3628	80.241466	81.043801	79.518089
14.5550	14.5600	174	19	1818.5024	1359.6369	80.128704	80.921123	79.421679
14.5600	14.5650	153	18	1819.7146	1358.8780	80.011559	80.796039	79.317934
14.5650	14.5700	134	14	1820.9268	1358.1191	79.894415	80.670955	79.214190
14.5700	14.5750	123	13	1820.9394	1357.3714	79.782539	80.560953	79.107526
14.5750	14.5800	129	11	1820.4674	1356.6287	79.672851	80.457104	78.999738
14.5800	14.5850	115	7	1819.6688	1355.8978	79.561264	80.352094	78.890675
14.5850	14.5900	103	11	1817.6609	1355.2126	79.442833	80.242972	78.777078
14.5900	14.5950	94	18	1815.6523	1354.5271	79.324357	80.133807	78.663438
14.5950	14.6000	85	11	1815.9936	1353.8498	79.207465	80.036437	78.553819
14.6000	14.6050	96	17	1817.2832	1353.1756	79.091171	79.943793	78.445785
14.6050	14.6100	99	5	1818.0871	1352.5028	78.975461	79.853105	78.336071
14.6100	14.6150	59	10	1817.0879	1351.8354	78.861935	79.769693	78.220144
14.6150	14.6200	68	2	1816.0883	1351.1678	78.748366	79.686248	78.104172
14.6200	14.6250	80	7	1814.3352	1350.5096	78.637380	79.590371	77.991826
14.6250	14.6300	80	6	1812.2768	1349.8548	78.527378	79.489419	77.880885
14.6300	14.6350	57	10	1811.0914	1349.1892	78.417117	79.388285	77.770679
14.6350	14.6400	75	11	1813.1441	1348.4822	78.305696	79.286297	77.663005
14.6400	14.6450	76	14	1815.1960	1347.7754	78.194316	79.184348	77.555372
14.6450	14.6500	108	9	1813.4592	1347.0874	78.064106	79.080098	77.449303
14.6500	14.6550	104	8	1810.1910	1346.4070	77.926293	78.974925	77.343876
14.6550	14.6600	121	12	1807.6580	1345.7235	77.794548	78.869486	77.236998
14.6600	14.6650	114	8	1807.8551	1345.0280	77.685219	78.762939	77.124617
14.6650	14.6700	112	11	1808.0522	1344.3328	77.575932	78.656432	77.012278
14.6700	14.6750	123	11	1808.1451	1343.6700	77.460857	78.547460	76.900161
14.6750	14.6800	119	11	1808.1958	1343.0206	77.343503	78.437550	76.788194
14.6800	14.6850	98	9	1807.9818	1342.3726	77.229076	78.327081	76.675914
14.6850	14.6900	95	10	1806.7854	1341.7310	77.125725	78.214738	76.562671
14.6900	14.6950	94	12	1805.5889	1341.0894	77.022374	78.102395	76.449428
14.6950	14.7000	89	7	1805.8384	1340.4257	76.912830	77.988798	76.334202
14.7000	14.7050	74	11	1806.6728	1339.7533	76.800839	77.874756	76.218235
14.7050	14.7100	87	7	1806.6364	1339.0721	76.687732	77.761122	76.103746
14.7100	14.7150	74	10	1803.3657	1338.3588	76.570687	77.649214	75.994955
14.7150	14.7200	74	13	1800.0936	1337.6453	76.453597	77.537264	75.886123
14.7200	14.7250	68	9	1798.0417	1336.8945	76.340941	77.427593	75.779174
14.7250	14.7300	91	7	1796.4824	1336.1284	76.230038	77.318807	75.672949
14.7300	14.7350	73	11	1795.2130	1335.3622	76.116597	77.209492	75.567200
14.7350	14.7400	76	10	1795.0216	1334.5962	75.993744	77.098235	75.463242
14.7400	14.7450	95	12	1794.8301	1333.8299	75.870843	76.986936	75.359244
14.7450	14.7500	85	13	1793.6619	1332.7305	75.752469	76.854780	75.239762
14.7500	14.7550	81	4	1792.0976	1331.4956	75.635863	76.714113	75.113949
14.7550	14.7600	86	12	1790.6761	1330.3010	75.518322	76.576335	74.988686
14.7600	14.7650	86	7	1789.7826	1329.2542	75.397093	76.449061	74.865241
14.7650	14.7700	64	6	1788.8895	1328.2079	75.275910	76.321836	74.741843
14.7700	14.7750	60	11	1786.6139	1327.3979	75.182499	76.205468	74.630439
14.7750	14.7800	57	9	1783.7787	1326.6836	75.100340	76.093505	74.523900
14.7800	14.7850	53	6	1781.2791	1325.9564	75.015104	75.983305	74.417509
14.7850	14.7900	52	6	1780.0268	1325.1801	74.918316	75.879548	74.311556
14.7900	14.7950	57	4	1778.7750	1324.4040	74.821564	75.775830	74.205643
14.7950	14.8000	51	7	1778.1041	1323.6872	74.722206	75.672485	74.100844
14.8000	14.8050	53	6	1777.6689	1322.9948	74.621846	75.569346	73.996552
14.8050	14.8100	55	9	1776.9953	1322.2207	74.521701	75.467034	73.892909
14.8100	14.8150	76	10	1775.4364	1321.1441	74.422532	75.367978	73.791864
14.8150	14.8200	60	6	1773.8775	1320.0674	74.323363	75.268923	73.690819
14.8200	14.8250	61	8	1772.1924	1318.7937	74.220288	75.167056	73.590360
14.8250	14.8300	68	4	1770.4571	1317.4409	74.115686	75.064104	73.490194
14.8300	14.8350	49	10	1768.7131	1316.1155	74.011095	74.960677	73.389658
14.8350	14.8400	71	8	1766.9402	1314.8948	73.906739	74.855671	73.287932
14.8400	14.8450	59	5	1765.1666	1313.6737	73.802343	74.750624	73.186167
14.8450	14.8500	47	10	1759.9970	1312.7341	73.697279	74.646009	73.083514
14.8500	14.8550	52	7	1753.4505	1311.9082	73.591908	74.541533	72.980464
14.8550	14.8600	40	10	1747.7738	1311.1725	73.485682	74.437098	72.877198
14.8600	14.8650	53	14	1745.3385	1310.7730	73.376294	74.332838	72.773145
14.8650	14.8700	59	8	1742.9024	1310.3734	73.266863	74.228538	72.669051
14.8700	14.8750	62	14	1737.2525	1309.9214	73.161271	74.125262	72.563000
14.8750	14.8800	51	11	1730.2969	1309.4479	73.057177	74.022345	72.456097
14.8800	14.8850	72	6	1723.1760	1308.9551	72.952144	73.919910	72.348594
14.8850	14.8900	76	13	1715.4264	1308.3891	72.843420	73.819084	72.238657
14.8900	14.8950	86	8	1707.6798	1307.8234	72.734738	73.718296	72.128763
14.8950	14.9000	95	5	1699.9405	1307.2456	72.633028	73.617764	72.021351
14.9000	14.9050	89	7	1692.2048	1306.6630	72.534153	73.517345	71.914954
14.9050	14.9100	91	9	1683.4738	1306.0508	72.433684	73.416129	71.809198
14.9100	14.9150	89	13	1671.0188	1305.3277	72.327152	73.311831	71.705722
14.9150	14.9200	128	18	1658.5686	1304.6048	72.220661	73.207572	71.602285
14.9200	14.9250	93	16	1651.2768	1303.8823	72.113679	73.105085	71.503234
14.9250	14.9300	93	12	1646.0813	1303.1604	72.006557	73.003371	71.406016
14.9300	14.9350	93	13	1643.0050	1302.4439	71.900332	72.901578	71.309623
14.9350	14.9400	99	11	1647.8315	1301.7491	71.797644	72.799673	71.216479
14.9400	14.9450	131	9	1652.6580	1301.0544	71.694957	72.697769	71.123336
14.9450	14.9500	137	14	1666.2655	1300.3414	71.590591	72.593241	71.022719
14.9500	14.9550	142	18	1683.4294	1299.6213	71.485600	72.487704	70.919122
14.9550	14.9600	151	21	1701.9755	1298.8862	71.381322	72.380648	70.814506
14.9600	14.9650	213	18	1725.6426	1298.0966	71.279888	72.268119	70.706277
14.9650	14.9700	221	21	1749.3186	1297.3066	71.178416	72.155547	70.598006
14.9700	14.9750	258	22	1769.6852	1296.5056	71.072555	72.042581	70.483086
14.9750	14.9800	314	33	1788.7166	1295.6998	70.964878	71.929415	70.365429
14.9800	14.9850	402	22	1807.3915	1294.9354	70.857758	71.817740	70.248997
14.9850	14.9900	539	36	1824.7322	1294.3255	70.752742	71.711655	70.137155
14.9900	14.9950	670	49	1842.0795	1293.7154	70.647686	71.605530	70.025271
14.9950	15.0000	884	70	1851.1152	1293.0818	70.540542	71.498695	69.914073
15.0000	15.0050	1035	59	1856.7808	1292.4383	70.432494	71.391514	69.803094
15.0050	15.0100	1095	71	1861.4605	1291.7858	70.324202	71.283678	69.692867
15.0100	15.0150	1069	62	1862.4659	1291.0990	70.214807	71.173198	69.585245
15.0150	15.0200	924	71	1863.4710	1290.4125	70.105454	71.062760	69.477664
15.0200	15.0250	887	63	1863.5668	1289.6898	69.997951	70.954890	69.374120
15.0250	15.0300	708	65	1863.2934	1288.9524	69.891208	70.848072	69.272223
15.0300	15.0350	575	50	1863.0202	1288.2072	69.784176	70.739853	69.168853
15.0350	15.0400	474	38	1862.7479	1287.4322	69.675946	70.626279	69.059864
15.0400	15.0450	391	29	1862.4756	1286.6574	69.567758	70.512748	68.950916
15.0450	15.0500	306	23	1862.2026	1285.9576	69.460825	70.400592	68.841259
15.0500	15.0550	273	24	1861.9295	1285.2888	69.354459	70.289055	68.731371
15.0550	15.0600	215	22	1861.6558	1284.6090	69.248480	70.178322	68.621300
15.0600	15.0650	242	22	1861.3804	1283.8892	69.144022	70.070673	68.510619
15.0650	15.0700	223	21	1861.1051	1283.1694	69.039584	69.963045	68.399960
15.0700	15.0750	204	21	1860.8297	1282.4423	68.933592	69.857244	68.292806
15.0750	15.0800	214	19	1860.5544	1281.7127	68.827026	69.752242	68.187136
15.0800	15.0850	198	18	1860.2787	1280.9791	68.720712	69.646149	68.081892
15.0850	15.0900	181	13	1860.0021	1280.2317	68.615535	69.536171	67.978435
15.0900	15.0950	165	14	1859.7253	1279.4840	68.510319	69.426151	67.874938
15.0950	15.1000	129	17	1859.4463	1278.7024	68.405070	69.320625	67.767880
15.1000	15.1050	120	10	1859.1662	1277.9066	68.299772	69.216888	67.659338
15.1050	15.1100	138	10	1858.8865	1277.1373	68.195196	69.113057	67.550485
15.1100	15.1150	110	9	1858.6078	1276.4670	68.093342	69.008895	67.440490
15.1150	15.1200	81	11	1858.3291	1275.7964	67.991449	68.904693	67.330452
15.1200	15.1250	70	9	1858.0473	1275.0620	67.888514	68.800502	67.220795
15.1250	15.1300	68	8	1857.7641	1274.3013	67.785100	68.696260	67.111235
15.1300	15.1350	68	14	1857.4811	1273.5336	67.680758	68.591810	67.001767
15.1350	15.1400	72	11	1857.1983	1272.7382	67.572754	68.486393	66.892449
15.1400	15.1450	80	11	1856.9156	1271.9430	67.464791	68.381017	66.783172
15.1450	15.1500	96	9	1856.6334	1271.1499	67.356710	68.274473	66.679138
15.1500	15.1550	108	17	1856.3515	1270.3576	67.248589	68.167462	66.577246
15.1550	15.1600	116	16	1856.0684	1269.5774	67.142510	68.060736	66.475051
15.1600	15.1650	149	7	1855.7808	1268.8414	67.043968	67.954958	66.371606
15.1650	15.1700	125	13	1855.4933	1268.1057	66.945464	67.849220	66.268200
15.1700	15.1750	152	15	1855.2096	1267.4218	66.845510	67.741615	66.170622
15.1750	15.1800	159	12	1854.9275	1266.7594	66.745020	67.633307	66.075470
15.1800	15.1850	154	15	1854.6450	1266.0854	66.644465	67.524532	65.980425
15.1850	15.1900	184	17	1854.3610	1265.3683	66.543738	67.414079	65.885851
15.1900	15.1950	197	17	1854.0771	1264.6513	66.443030	67.303648	65.791295
15.1950	15.2000	201	15	1853.7704	1263.9209	66.337926	67.194548	65.692845
15.2000	15.2050	172	15	1853.4546	1263.1854	66.231089	67.086050	65.592862
15.2050	15.2100	192	17	1853.1394	1262.4397	66.124429	66.977956	65.492008
15.2100	15.2150	196	13	1852.8271	1261.6566	66.018621	66.871568	65.388076
15.2150	15.2200	180	21	1852.5146	1260.8732	65.912773	66.765139	65.284104
15.2200	15.2250	183	20	1852.2006	1260.0545	65.806635	66.661372	65.176972
15.2250	15.2300	241	16	1851.8859	1259.2210	65.700343	66.558652	65.068518
15.2300	15.2350	205	12	1851.5716	1258.3968	65.595064	66.456621	64.959837
15.2350	15.2400	304	21	1851.2590	1257.6070	65.493598	66.357188	64.850328
15.2400	15.2450	333	34	1850.9462	1256.8170	65.392093	66.257716	64.740777
15.2450	15.2500	452	27	1850.6350	1255.9972	65.290317	66.158268	64.629935
15.2500	15.2550	489	31	1850.3242	1255.1650	65.188378	66.058776	64.518508
15.2550	15.2600	493	22	1850.0125	1254.3499	65.086407	65.959685	64.408167
15.2600	15.2650	460	25	1849.6969	1253.5976	64.984137	65.861920	64.301701
15.2650	15.2700	455	18	1849.3814	1252.8455	64.881905	65.764192	64.195275
15.2700	15.2750	376	21	1849.0775	1252.1032	64.781726	65.666296	64.092731
15.2750	15.2800	298	21	1848.7785	1251.3650	64.682390	65.568339	63.991777
15.2800	15.2850	262	11	1848.4698	1250.6205	64.582382	65.468783	63.888929
15.2850	15.2900	215	16	1848.1247	1249.8514	64.479745	65.363113	63.778856
15.2900	15.2950	168	20	1847.7798	1249.0826	64.377147	65.257483	63.668826
15.2950	15.3000	128	8	1847.4362	1248.3240	64.274374	65.150810	63.555523
15.3000	15.3050	131	11	1847.0933	1247.5699	64.171586	65.043770	63.440947
15.3050	15.3100	117	14	1846.7512	1246.8096	64.068817	64.936660	63.324811
15.3100	15.3150	106	15	1846.4125	1246.0266	63.966199	64.829365	63.202903
15.3150	15.3200	95	11	1846.0738	1245.2438	63.863600	64.722090	63.081018
15.3200	15.3250	77	8	1845.7334	1244.5284	63.762329	64.614193	62.963078
15.3250	15.3300	72	8	1845.3926	1243.8408	63.661654	64.506099	62.846811
15.3300	15.3350	78	9	1845.0521	1243.1299	63.560664	64.398525	62.737220
15.3350	15.3400	85	10	1844.7136	1242.3327	63.458676	64.293097	62.652880
