# do not edit -- automatically generated Thu Aug 22 13:40:06 2019 from /susfu/kashyap/solar/ISSI/Capella_O7/binned_11t18.pro
# 
# events in wavelength region [11.00,18.00] Ang
# 
# BACKSCAL = 15.6250
#columns are:
#WLOW: wavelength grid bin lower bound [Angstrom]
#WHIGH: wavelength grid bin upper bound [Angstrom]
#SRCCT: counts in bin [ct]
#BKGCT: background counts in bin [ct]
#EA{p|n}_OBSID: effective area for each ObsID [cm^2 ksec]
WLOW	WHIGH	SRCCT	BKGCT	EAp_00055	EAp_08319	EAp_18358	EAp_18360	EAp_18362
N	N	N	N	N	N	N	N	N
11.0000	11.0050	106	7	2115.5532	1849.7908	181.76865	182.92794	181.10263
11.0050	11.0100	73	10	2114.2925	1848.1911	181.50637	182.65159	180.80956
11.0100	11.0150	93	7	2113.0165	1846.6374	181.24309	182.37580	180.52836
11.0150	11.0200	91	7	2111.7410	1845.0844	180.97991	182.10012	180.24727
11.0200	11.0250	84	7	2110.4676	1843.5477	180.71970	181.82426	179.98226
11.0250	11.0300	80	7	2109.1953	1842.0174	180.46067	181.54835	179.72348
11.0300	11.0350	68	7	2107.9239	1840.4838	180.19949	181.27601	179.46622
11.0350	11.0400	60	6	2106.6548	1838.9371	179.93050	181.01592	179.21402
11.0400	11.0450	59	5	2105.3861	1837.3911	179.66162	180.75593	178.96192
11.0450	11.0500	30	3	2104.1198	1835.8331	179.39636	180.48638	178.70383
11.0500	11.0550	38	1	2102.8550	1834.2713	179.13263	180.21328	178.44357
11.0550	11.0600	40	5	2101.5903	1832.6963	178.86647	179.94103	178.18086
11.0600	11.0650	39	4	2100.3283	1831.0779	178.59217	179.67223	177.91000
11.0650	11.0700	37	4	2099.0663	1829.4594	178.31787	179.40343	177.63915
11.0700	11.0750	33	5	2097.7643	1827.8169	178.05513	179.13498	177.37366
11.0750	11.0800	28	9	2096.4476	1826.1661	177.79700	178.86682	177.11040
11.0800	11.0850	34	3	2095.2564	1824.6229	177.55150	178.60514	176.85465
11.0850	11.0900	37	4	2094.5084	1823.4610	177.35086	178.36671	176.62579
11.0900	11.0950	46	5	2093.7601	1822.2987	177.15015	178.12819	176.39684
11.0950	11.1000	41	5	2093.0295	1821.1834	176.93198	177.89973	176.18156
11.1000	11.1050	42	10	2092.3054	1820.0859	176.70699	177.67507	175.97149
11.1050	11.1100	63	5	2091.5873	1818.9898	176.48556	177.45273	175.76320
11.1100	11.1150	68	5	2090.8900	1817.8992	176.27668	177.23858	175.56119
11.1150	11.1200	71	3	2090.1925	1816.8081	176.06773	177.02434	175.35911
11.1200	11.1250	63	8	2089.4965	1815.7025	175.85081	176.80993	175.14135
11.1250	11.1300	86	8	2088.8007	1814.5907	175.63071	176.59532	174.91742
11.1300	11.1350	78	9	2088.1056	1813.4795	175.40878	176.37991	174.69333
11.1350	11.1400	79	8	2087.4113	1812.3681	175.18002	176.16127	174.46826
11.1400	11.1450	78	7	2086.7174	1811.2572	174.95135	175.94272	174.24328
11.1450	11.1500	61	3	2086.0249	1810.1105	174.72890	175.73325	174.01496
11.1500	11.1550	60	8	2085.3331	1808.9501	174.50888	175.52732	173.78538
11.1550	11.1600	40	6	2084.6418	1807.8063	174.28786	175.32035	173.55550
11.1600	11.1650	64	6	2083.9519	1806.7198	174.06312	175.10951	173.32437
11.1650	11.1700	46	7	2083.2621	1805.6336	173.83846	174.89875	173.09333
11.1700	11.1750	57	11	2082.5735	1804.5295	173.62071	174.68456	172.86186
11.1750	11.1800	51	6	2081.8857	1803.4190	173.40575	174.46916	172.63034
11.1800	11.1850	39	7	2081.1979	1802.3084	173.19021	174.25477	172.40090
11.1850	11.1900	49	9	2080.5116	1801.1996	172.97301	174.04433	172.17916
11.1900	11.1950	48	7	2079.8253	1800.0908	172.75580	173.83389	171.95741
11.1950	11.2000	51	5	2079.1242	1799.0019	172.53078	173.61974	171.74100
11.2000	11.2050	42	7	2078.4179	1797.9213	172.30284	173.40426	171.52676
11.2050	11.2100	37	1	2077.7065	1796.8336	172.07722	173.18584	171.31376
11.2100	11.2150	43	5	2076.9787	1795.7229	171.86015	172.95741	171.10548
11.2150	11.2200	40	6	2076.2506	1794.6119	171.64300	172.72890	170.89711
11.2200	11.2250	42	4	2075.5761	1793.5432	171.43361	172.51326	170.68609
11.2250	11.2300	61	7	2074.9220	1792.4906	171.22715	172.30254	170.47397
11.2300	11.2350	76	9	2074.2783	1791.4364	171.02303	172.09104	170.26507
11.2350	11.2400	90	7	2073.6715	1790.3769	170.82721	171.87681	170.06755
11.2400	11.2450	91	7	2073.0644	1789.3170	170.63132	171.66251	169.86995
11.2450	11.2500	92	8	2072.4597	1788.2828	170.41602	171.45033	169.66311
11.2500	11.2550	94	11	2071.8556	1787.2580	170.19309	171.23887	169.45258
11.2550	11.2600	104	12	2071.2521	1786.2432	169.97593	171.02765	169.24232
11.2600	11.2650	80	8	2070.6493	1785.2622	169.77868	170.81692	169.03266
11.2650	11.2700	72	8	2070.0468	1784.2816	169.58151	170.60627	168.82307
11.2700	11.2750	61	5	2069.5013	1783.4932	169.38894	170.41014	168.62522
11.2750	11.2800	52	8	2068.9779	1782.7793	169.19817	170.21966	168.43194
11.2800	11.2850	71	9	2068.4592	1782.0474	169.00982	170.03124	168.23950
11.2850	11.2900	68	8	2067.9567	1781.2511	168.82980	169.84989	168.04982
11.2900	11.2950	73	12	2067.4544	1780.4551	168.64986	169.66862	167.86022
11.2950	11.3000	77	6	2066.9677	1779.5882	168.45947	169.48348	167.67711
11.3000	11.3050	74	8	2066.4873	1778.6943	168.26514	169.29694	167.49661
11.3050	11.3100	100	6	2066.0120	1777.7925	168.07422	169.11083	167.31762
11.3100	11.3150	67	12	2065.5552	1776.8648	167.89568	168.92661	167.14424
11.3150	11.3200	105	8	2065.0984	1775.9371	167.71714	168.74238	166.97086
11.3200	11.3250	111	12	2064.6406	1775.0638	167.53950	168.55532	166.78784
11.3250	11.3300	80	11	2064.1826	1774.2120	167.36229	168.36726	166.60117
11.3300	11.3350	81	4	2063.7256	1773.3738	167.18608	168.17905	166.41444
11.3350	11.3400	66	7	2063.2727	1772.5847	167.01369	167.99064	166.22779
11.3400	11.3450	59	6	2062.8197	1771.7954	166.84124	167.80216	166.04106
11.3450	11.3500	64	4	2062.3670	1770.9913	166.65710	167.61586	165.86810
11.3500	11.3550	49	7	2061.9144	1770.1812	166.46836	167.43034	165.70041
11.3550	11.3600	38	4	2061.4619	1769.3550	166.28094	167.24733	165.53798
11.3600	11.3650	44	5	2061.0101	1768.4720	166.09819	167.07319	165.39418
11.3650	11.3700	39	4	2060.5581	1767.5888	165.91537	166.89898	165.25033
11.3700	11.3750	38	5	2060.1052	1766.6700	165.73048	166.72698	165.07398
11.3750	11.3800	35	5	2059.6516	1765.7369	165.54468	166.55573	164.88495
11.3800	11.3850	34	3	2059.1916	1764.8156	165.36002	166.38065	164.69415
11.3850	11.3900	53	6	2058.7077	1763.9344	165.17905	166.19168	164.49682
11.3900	11.3950	45	11	2058.2241	1763.0536	164.99815	166.00278	164.29956
11.3950	11.4000	55	7	2057.7247	1762.1214	164.81048	165.82004	164.11098
11.4000	11.4050	72	9	2057.2193	1761.1692	164.62021	165.63970	163.92578
11.4050	11.4100	83	10	2056.7098	1760.2023	164.42991	165.46225	163.74184
11.4100	11.4150	76	9	2056.1854	1759.1819	164.23934	165.29487	163.56217
11.4150	11.4200	95	5	2055.6612	1758.1619	164.04884	165.12756	163.38258
11.4200	11.4250	111	16	2055.0989	1757.1832	163.86569	164.96128	163.20876
11.4250	11.4300	107	10	2054.5221	1756.2211	163.68550	164.79548	163.03727
11.4300	11.4350	104	13	2053.9523	1755.2508	163.50361	164.62734	162.86682
11.4350	11.4400	92	12	2053.4086	1754.2536	163.31603	164.45119	162.70035
11.4400	11.4450	94	11	2052.8648	1753.2564	163.12846	164.27504	162.53388
11.4450	11.4500	89	8	2052.3230	1752.4087	162.95317	164.09417	162.36073
11.4500	11.4550	93	5	2051.7821	1751.6196	162.78273	163.91156	162.18508
11.4550	11.4600	69	5	2051.2442	1750.8594	162.61101	163.73108	162.01004
11.4600	11.4650	60	6	2050.7172	1750.2032	162.43505	163.55842	161.83750
11.4650	11.4700	56	4	2050.1900	1749.5467	162.25902	163.38569	161.66488
11.4700	11.4750	59	7	2049.6797	1748.9145	162.07851	163.20585	161.47926
11.4750	11.4800	74	8	2049.1757	1748.2914	161.89618	163.02320	161.28852
11.4800	11.4850	66	4	2048.6569	1747.6435	161.71556	162.84251	161.09925
11.4850	11.4900	57	8	2048.0859	1746.9081	161.54101	162.66882	160.91518
11.4900	11.4950	72	5	2047.5145	1746.1723	161.36638	162.49506	160.73104
11.4950	11.5000	81	9	2047.0023	1745.3661	161.18921	162.32558	160.55329
11.5000	11.5050	78	10	2046.5128	1744.5320	161.01096	162.15766	160.37793
11.5050	11.5100	93	4	2046.0418	1743.7045	160.83535	161.99035	160.20507
11.5100	11.5150	102	14	2045.6354	1742.8990	160.66882	161.82486	160.04078
11.5150	11.5200	102	17	2045.2292	1742.0938	160.50236	161.65943	159.87656
11.5200	11.5250	103	13	2044.8266	1741.2702	160.33248	161.49693	159.71875
11.5250	11.5300	139	13	2044.4255	1740.4396	160.16129	161.33559	159.56344
11.5300	11.5350	137	14	2044.0262	1739.6307	159.99281	161.17399	159.40763
11.5350	11.5400	143	18	2043.6326	1738.8980	159.83378	161.01126	159.24988
11.5400	11.5450	111	9	2043.2392	1738.1656	159.67481	160.84860	159.09220
11.5450	11.5500	111	5	2042.8426	1737.5209	159.51909	160.68984	158.93571
11.5500	11.5550	95	8	2042.4450	1736.9106	159.36472	160.53268	158.77977
11.5550	11.5600	101	10	2042.0489	1736.3059	159.20856	160.37200	158.62491
11.5600	11.5650	75	10	2041.6590	1735.7224	159.04633	160.19912	158.47416
11.5650	11.5700	64	5	2041.2691	1735.1388	158.88410	160.02624	158.32341
11.5700	11.5750	55	2	2040.8839	1734.5731	158.72451	159.85808	158.16404
11.5750	11.5800	52	4	2040.5008	1734.0147	158.56603	159.69184	158.00140
11.5800	11.5850	32	5	2040.1158	1733.4354	158.40705	159.52858	157.83771
11.5850	11.5900	43	7	2039.7250	1732.7830	158.24658	159.37617	157.67055
11.5900	11.5950	44	1	2039.3341	1732.1303	158.08605	159.22371	157.50333
11.5950	11.6000	35	9	2038.9729	1731.4840	157.94100	159.07473	157.33899
11.6000	11.6050	39	4	2038.6232	1730.8400	157.80192	158.92706	157.17571
11.6050	11.6100	32	8	2038.2775	1730.1934	157.65807	158.77806	157.01384
11.6100	11.6150	32	2	2037.9464	1729.5377	157.49733	158.62436	156.85693
11.6150	11.6200	31	3	2037.6152	1728.8818	157.33652	158.47060	156.69997
11.6200	11.6250	37	6	2037.2846	1728.2242	157.17334	158.31777	156.54775
11.6250	11.6300	24	5	2036.9539	1727.5656	157.00914	158.16521	156.39729
11.6300	11.6350	43	2	2036.6258	1726.9136	156.84892	158.01319	156.24565
11.6350	11.6400	38	5	2036.3060	1726.2843	156.70254	157.86280	156.08953
11.6400	11.6450	44	7	2035.9864	1725.6552	156.55622	157.71247	155.93346
11.6450	11.6500	36	4	2035.6579	1725.0227	156.39860	157.55918	155.77916
11.6500	11.6550	42	2	2035.3261	1724.3889	156.23660	157.40476	155.62555
11.6550	11.6600	52	5	2034.9974	1723.7548	156.07737	157.24950	155.47299
11.6600	11.6650	34	8	2034.6799	1723.1185	155.92780	157.09115	155.32403
11.6650	11.6700	30	10	2034.3625	1722.4824	155.77830	156.93286	155.17513
11.6700	11.6750	27	5	2034.0401	1721.8299	155.62552	156.77833	155.02122
11.6750	11.6800	32	5	2033.7159	1721.1712	155.47156	156.62535	154.86544
11.6800	11.6850	28	7	2033.3815	1720.4906	155.31886	156.47192	154.70682
11.6850	11.6900	32	4	2033.0116	1719.7332	155.17093	156.31718	154.53844
11.6900	11.6950	33	5	2032.6417	1718.9758	155.02299	156.16244	154.37006
11.6950	11.7000	48	7	2032.2501	1718.1894	154.86830	156.00610	154.19745
11.7000	11.7050	45	5	2031.8502	1717.3921	154.71106	155.84921	154.02327
11.7050	11.7100	46	5	2031.4483	1716.5886	154.55004	155.68982	153.84826
11.7100	11.7150	57	6	2031.0399	1715.7644	154.37588	155.52185	153.67060
11.7150	11.7200	57	5	2030.6313	1714.9399	154.20164	155.35382	153.49287
11.7200	11.7250	87	8	2030.2226	1714.1197	154.03441	155.17868	153.31983
11.7250	11.7300	78	8	2029.8137	1713.3009	153.86984	155.00072	153.14857
11.7300	11.7350	70	13	2029.4062	1712.4709	153.70205	154.82421	152.97725
11.7350	11.7400	100	7	2029.0034	1711.6012	153.52290	154.65284	152.80572
11.7400	11.7450	94	2	2028.6004	1710.7312	153.34368	154.48141	152.63414
11.7450	11.7500	100	6	2028.1921	1709.8495	153.17712	154.31107	152.46662
11.7500	11.7550	102	10	2027.7814	1708.9628	153.01540	154.14106	152.30061
11.7550	11.7600	128	10	2027.3730	1708.0863	152.85369	153.97187	152.13344
11.7600	11.7650	128	13	2026.9725	1707.2447	152.69171	153.80529	151.96189
11.7650	11.7700	114	8	2026.5720	1706.4034	152.52979	153.63877	151.79041
11.7700	11.7750	104	9	2026.1681	1705.6018	152.36674	153.46499	151.62665
11.7750	11.7800	87	12	2025.7629	1704.8159	152.20327	153.28841	151.46591
11.7800	11.7850	88	5	2025.3585	1704.0426	152.03960	153.11134	151.30363
11.7850	11.7900	74	9	2024.9565	1703.3135	151.87507	152.93235	151.13571
11.7900	11.7950	74	5	2024.5547	1702.5847	151.71061	152.75344	150.96785
11.7950	11.8000	42	6	2024.1307	1701.8600	151.54902	152.58286	150.80311
11.8000	11.8050	58	7	2023.6983	1701.1373	151.38864	152.41563	150.63967
11.8050	11.8100	54	10	2023.2597	1700.3882	151.22782	152.24811	150.47404
11.8100	11.8150	67	4	2022.7996	1699.5467	151.06570	152.07981	150.30087
11.8150	11.8200	52	3	2022.3396	1698.7053	150.90358	151.91152	150.12771
11.8200	11.8250	50	6	2021.8841	1697.7965	150.73144	151.74052	149.95632
11.8250	11.8300	60	7	2021.4308	1696.8620	150.55549	151.56856	149.78572
11.8300	11.8350	58	6	2020.9758	1695.9296	150.38051	151.40129	149.61529
11.8350	11.8400	52	5	2020.5159	1695.0060	150.20924	151.25103	149.44582
11.8400	11.8450	47	4	2020.0558	1694.0822	150.03791	151.10070	149.27628
11.8450	11.8500	51	3	2019.5982	1693.2904	149.87183	150.93608	149.10442
11.8500	11.8550	54	7	2019.1413	1692.5498	149.70774	150.76582	148.93160
11.8550	11.8600	60	6	2018.7171	1691.8403	149.54392	150.59581	148.75885
11.8600	11.8650	41	4	2018.4094	1691.2411	149.38103	150.42673	148.58640
11.8650	11.8700	47	7	2018.1016	1690.6417	149.21809	150.25759	148.41388
11.8700	11.8750	37	9	2017.7242	1689.9802	149.05341	150.08726	148.24319
11.8750	11.8800	52	9	2017.3194	1689.2940	148.88798	149.91638	148.07313
11.8800	11.8850	37	5	2016.9167	1688.6042	148.72150	149.74595	147.90491
11.8850	11.8900	38	5	2016.5208	1687.9002	148.55100	149.57679	147.74296
11.8900	11.8950	44	6	2016.1251	1687.1963	148.38056	149.40770	147.58107
11.8950	11.9000	41	6	2015.7076	1686.4813	148.20945	149.24027	147.41110
11.9000	11.9050	42	7	2015.2816	1685.7618	148.03809	149.07349	147.23798
11.9050	11.9100	52	4	2014.8497	1685.0366	147.86943	148.90696	147.06490
11.9100	11.9150	38	6	2014.3966	1684.2900	147.71021	148.74115	146.89178
11.9150	11.9200	43	5	2013.9438	1683.5437	147.55104	148.57540	146.71872
11.9200	11.9250	48	4	2013.4532	1682.7272	147.38748	148.40822	146.54098
11.9250	11.9300	66	2	2012.9482	1681.8837	147.22228	148.24058	146.36149
11.9300	11.9350	50	6	2012.4395	1681.0280	147.05701	148.07139	146.18204
11.9350	11.9400	69	6	2011.9185	1680.1303	146.89180	147.89703	146.00302
11.9400	11.9450	56	4	2011.3975	1679.2326	146.72659	147.72267	145.82400
11.9450	11.9500	61	4	2010.8793	1678.3936	146.55738	147.55641	145.65898
11.9500	11.9550	50	5	2010.3624	1677.5779	146.38670	147.39341	145.49951
11.9550	11.9600	43	6	2009.8461	1676.7669	146.21819	147.22864	145.34331
11.9600	11.9650	57	7	2009.3325	1675.9741	146.05775	147.05788	145.19901
11.9650	11.9700	54	9	2008.8188	1675.1809	145.89724	146.88705	145.05465
11.9700	11.9750	61	9	2008.3042	1674.4396	145.73407	146.71783	144.91508
11.9750	11.9800	54	4	2007.7891	1673.7181	145.56980	146.54919	144.77733
11.9800	11.9850	46	8	2007.2742	1673.0023	145.40576	146.37874	144.63576
11.9850	11.9900	36	3	2006.7598	1672.3069	145.24261	146.20186	144.48058
11.9900	11.9950	43	4	2006.2452	1671.6111	145.07940	146.02492	144.32534
11.9950	12.0000	43	3	2005.7632	1670.8618	144.90257	145.85504	144.15602
12.0000	12.0050	40	7	2005.2937	1670.0913	144.72034	145.68784	143.98111
12.0050	12.0100	35	5	2004.8351	1669.3101	144.54279	145.52229	143.80615
12.0100	12.0150	42	7	2004.4145	1668.4899	144.38166	145.36234	143.63071
12.0150	12.0200	33	4	2003.9940	1667.6699	144.22060	145.20246	143.45534
12.0200	12.0250	46	5	2003.5797	1666.7937	144.05450	145.03829	143.27422
12.0250	12.0300	48	4	2003.1680	1665.8955	143.88645	144.87244	143.09087
12.0300	12.0350	42	5	2002.7544	1665.0066	143.71907	144.70972	142.90975
12.0350	12.0400	53	7	2002.3340	1664.1495	143.55391	144.55796	142.73641
12.0400	12.0450	53	8	2001.9138	1663.2928	143.38881	144.40625	142.56312
12.0450	12.0500	68	9	2001.4969	1662.4274	143.22650	144.25315	142.39795
12.0500	12.0550	52	10	2001.0817	1661.5589	143.06538	144.09957	142.23605
12.0550	12.0600	47	11	2000.6668	1660.6972	142.90238	143.94468	142.07394
12.0600	12.0650	72	6	2000.2539	1659.8601	142.73276	143.78521	141.91122
12.0650	12.0700	76	8	1999.8411	1659.0233	142.56317	143.62576	141.74852
12.0700	12.0750	90	6	1999.4230	1658.1833	142.39942	143.46373	141.59110
12.0750	12.0800	97	12	1999.0030	1657.3427	142.23804	143.30078	141.43583
12.0800	12.0850	98	10	1998.5847	1656.4749	142.07681	143.13543	141.28172
12.0850	12.0900	138	18	1998.1731	1655.5117	141.91639	142.96184	141.13201
12.0900	12.0950	190	15	1997.7613	1654.5482	141.75591	142.78818	140.98225
12.0950	12.1000	194	21	1997.3095	1653.5584	141.59714	142.61892	140.83211
12.1000	12.1050	267	18	1996.8418	1652.5580	141.43900	142.45132	140.68176
12.1050	12.1100	345	23	1996.3634	1651.5545	141.27963	142.28558	140.53305
12.1100	12.1150	403	29	1995.8468	1650.5397	141.11596	142.12651	140.39015
12.1150	12.1200	502	44	1995.3300	1649.5245	140.95222	141.96739	140.24720
12.1200	12.1250	512	35	1994.8181	1648.5678	140.79634	141.81098	140.10399
12.1250	12.1300	543	36	1994.3077	1647.6334	140.64345	141.65555	139.96060
12.1300	12.1350	577	44	1993.8282	1646.7571	140.49213	141.50249	139.81883
12.1350	12.1400	528	30	1993.4579	1646.0865	140.34611	141.35764	139.68258
12.1400	12.1450	490	23	1993.0877	1645.4162	140.20014	141.21284	139.54638
12.1450	12.1500	386	34	1992.7228	1644.8239	140.05623	141.07627	139.41148
12.1500	12.1550	294	29	1992.3599	1644.2622	139.91313	140.94292	139.27711
12.1550	12.1600	254	28	1991.9969	1643.7510	139.76818	140.81048	139.14306
12.1600	12.1650	196	23	1991.6331	1643.4199	139.61646	140.68112	139.01007
12.1650	12.1700	151	8	1991.2695	1643.0889	139.46481	140.55182	138.87713
12.1700	12.1750	106	12	1990.9052	1642.7034	139.32442	140.42381	138.73937
12.1750	12.1800	104	14	1990.5408	1642.2968	139.18853	140.29637	138.59979
12.1800	12.1850	105	5	1990.1777	1641.8632	139.05139	140.16789	138.45979
12.1850	12.1900	76	14	1989.8192	1641.3335	138.90988	140.03575	138.31835
12.1900	12.1950	89	6	1989.4608	1640.8040	138.76840	139.90364	138.17694
12.1950	12.2000	87	10	1989.1241	1640.2851	138.62687	139.76162	138.03472
12.2000	12.2050	78	12	1988.7962	1639.7707	138.48540	139.61578	137.89227
12.2050	12.2100	78	5	1988.4719	1639.2282	138.34340	139.47206	137.74866
12.2100	12.2150	76	8	1988.1613	1638.5865	138.19980	139.33615	137.60116
12.2150	12.2200	67	12	1987.8506	1637.9445	138.05614	139.20019	137.45361
12.2200	12.2250	96	8	1987.5429	1637.2843	137.91524	139.06591	137.30725
12.2250	12.2300	90	11	1987.2363	1636.6167	137.77536	138.93226	137.16131
12.2300	12.2350	101	10	1986.9295	1635.9321	137.63387	138.79723	137.01527
12.2350	12.2400	104	19	1986.6218	1635.1866	137.48664	138.65727	136.86892
12.2400	12.2450	171	18	1986.3140	1634.4408	137.33935	138.51727	136.72252
12.2450	12.2500	194	15	1985.9951	1633.6543	137.19625	138.37152	136.57224
12.2500	12.2550	202	18	1985.6715	1632.8514	137.05472	138.22344	136.42035
12.2550	12.2600	228	21	1985.3463	1632.0574	136.90984	138.07722	136.26829
12.2600	12.2650	236	19	1985.0144	1631.2939	136.75273	137.93736	136.11538
12.2650	12.2700	259	23	1984.6826	1630.5306	136.59568	137.79756	135.96253
12.2700	12.2750	270	24	1984.3300	1629.7802	136.44612	137.65261	135.80033
12.2750	12.2800	268	31	1983.9693	1629.0348	136.29952	137.50564	135.63448
12.2800	12.2850	278	18	1983.6036	1628.2965	136.15246	137.35970	135.47413
12.2850	12.2900	203	26	1983.2191	1627.5822	136.00361	137.21725	135.33335
12.2900	12.2950	222	5	1982.8349	1626.8683	135.85482	137.07485	135.19262
12.2950	12.3000	178	12	1982.4278	1626.1626	135.71916	136.93728	135.06504
12.3000	12.3050	143	16	1982.0119	1625.4606	135.58872	136.80168	134.94268
12.3050	12.3100	112	11	1981.5851	1624.7776	135.45792	136.66490	134.81920
12.3100	12.3150	83	13	1981.1195	1624.1631	135.32594	136.52404	134.69180
12.3150	12.3200	86	3	1980.6540	1623.5488	135.19398	136.38321	134.56443
12.3200	12.3250	84	7	1980.2423	1622.9964	135.06728	136.23771	134.42929
12.3250	12.3300	67	6	1979.8519	1622.4686	134.94272	136.09045	134.29117
12.3300	12.3350	69	10	1979.4694	1621.9243	134.81739	135.94512	134.15577
12.3350	12.3400	59	9	1979.1156	1621.3219	134.68956	135.80693	134.03035
12.3400	12.3450	51	7	1978.7617	1620.7193	134.56167	135.66868	133.90488
12.3450	12.3500	56	8	1978.4188	1620.0970	134.44012	135.53414	133.77735
12.3500	12.3550	52	6	1978.0800	1619.4666	134.32102	135.40100	133.64896
12.3550	12.3600	57	7	1977.7429	1618.8320	134.20105	135.26814	133.52193
