# do not edit -- automatically generated Mon Aug 27 17:14:16 2018 from /susfu/kashyap/solar/ISSI/Capella_O7/binned_14t18.pro
# 
# events in wavelength region [14.00,18.00] Ang
# 
# BACKSCAL = 15.6250
#columns are:
#WLOW: wavelength grid bin lower bound [Angstrom]
#WHIGH: wavelength grid bin upper bound [Angstrom]
#SRCCT: counts in bin [ct]
#BKGCT: background counts in bin [ct]
#EA{p|n}_OBSID: effective area for each ObsID [cm^2 ksec]
WLOW	WHIGH	SRCCT	BKGCT	EAp_00055	EAp_01225	EAp_08319	EAp_18358	EAp_18360	EAp_18362
N	N	N	N	N	N	N	N	N	N
14.0000	14.0050	101	13	1919.4019	212.15301	1459.4095	96.047001	92.438942	92.870670
14.0050	14.0100	93	6	1911.8244	208.98860	1458.7217	95.885447	91.820829	94.282595
14.0100	14.0150	90	13	1901.8163	204.61455	1458.0567	95.605593	90.994013	95.789430
14.0150	14.0200	93	14	1891.8120	200.24217	1457.3919	95.325845	90.167511	97.295691
14.0200	14.0250	123	11	1875.4849	197.55681	1456.7943	95.252021	89.672761	98.086253
14.0250	14.0300	135	15	1856.7836	195.50545	1456.2222	95.255567	89.302683	98.607871
14.0300	14.0350	148	16	1835.7713	193.68244	1455.6936	95.172950	88.948560	98.986337
14.0350	14.0400	162	19	1806.8563	192.63627	1455.3131	94.796420	88.648478	98.877029
14.0400	14.0450	142	10	1777.9523	191.59049	1454.9327	94.420034	88.348510	98.767762
14.0450	14.0500	150	12	1755.1504	192.13511	1454.6366	94.382360	88.874959	98.658765
14.0500	14.0550	140	11	1734.6533	193.27704	1454.3724	94.471978	89.711660	98.549926
14.0550	14.0600	174	13	1716.3173	194.62054	1454.0738	94.459107	90.594667	98.437081
14.0600	14.0650	161	17	1705.3687	196.64793	1453.6587	94.097371	91.633822	98.310786
14.0650	14.0700	159	13	1694.4201	198.67533	1453.2436	93.735635	92.672977	98.184490
14.0700	14.0750	138	17	1691.6992	200.48273	1452.7219	93.588557	93.494916	98.063867
14.0750	14.0800	130	8	1692.0728	202.20649	1452.1604	93.522253	94.234764	97.945440
14.0800	14.0850	139	15	1693.5641	203.61654	1451.5793	93.410367	95.057220	97.826731
14.0850	14.0900	122	11	1698.8607	203.95543	1450.9323	93.143371	96.159732	97.707260
14.0900	14.0950	113	12	1704.1593	204.29445	1450.2850	92.876274	97.262666	97.587744
14.0950	14.1000	110	14	1716.9442	205.23113	1449.5722	92.505399	97.946409	97.467340
14.1000	14.1050	105	11	1732.5455	206.39263	1448.8344	92.095417	98.472911	97.346562
14.1050	14.1100	104	13	1747.2454	207.33874	1448.0898	91.735872	98.890112	97.224653
14.1100	14.1150	104	15	1758.8684	207.55004	1447.3222	91.548416	98.934456	97.098906
14.1150	14.1200	103	14	1770.4958	207.76142	1446.5543	91.360888	98.978817	96.973112
14.1200	14.1250	118	12	1776.7090	208.04007	1445.8361	90.868831	98.901489	96.856365
14.1250	14.1300	100	8	1780.8897	208.34417	1445.1361	90.262016	98.778366	96.742959
14.1300	14.1350	97	9	1784.9283	208.62046	1444.4437	89.817955	98.656684	96.628605
14.1350	14.1400	112	10	1788.4893	208.80236	1443.7754	89.928192	98.539708	96.510829
14.1400	14.1450	124	10	1792.0489	208.98419	1443.1073	90.038387	98.422777	96.393098
14.1450	14.1500	97	11	1795.4581	208.90428	1442.4143	89.867953	98.307936	96.277974
14.1500	14.1550	107	8	1798.8105	208.72590	1441.7120	89.591959	98.193889	96.163839
14.1550	14.1600	122	14	1801.7489	208.58190	1440.9970	89.258181	98.077458	96.047329
14.1600	14.1650	138	17	1803.2769	208.55515	1440.2378	88.726707	97.952760	95.922584
14.1650	14.1700	147	19	1804.8042	208.52842	1439.4789	88.195436	97.828110	95.797887
14.1700	14.1750	218	10	1807.9268	208.70641	1438.7337	87.838672	97.697690	95.675009
14.1750	14.1800	233	22	1811.6479	208.96133	1437.9940	87.547748	97.565167	95.552879
14.1800	14.1850	292	23	1814.4502	209.20851	1437.2464	87.116263	97.435336	95.431200
14.1850	14.1900	392	21	1814.1161	209.42886	1436.4733	86.206453	97.314895	95.311259
14.1900	14.1950	450	32	1813.7820	209.64922	1435.7002	85.296643	97.194455	95.191319
14.1950	14.2000	432	54	1814.4796	209.52022	1434.9419	85.427326	97.068692	95.068740
14.2000	14.2050	527	47	1815.5651	209.25980	1434.1896	85.949561	96.940992	94.945232
14.2050	14.2100	557	48	1816.8645	209.13906	1433.4458	86.369199	96.814564	94.820331
14.2100	14.2150	503	31	1818.8916	209.49508	1432.7325	86.438094	96.692688	94.690888
14.2150	14.2200	497	38	1820.9195	209.85124	1432.0190	86.507016	96.570766	94.561395
14.2200	14.2250	430	29	1822.2603	210.47382	1431.3878	87.222240	96.446307	94.434938
14.2250	14.2300	475	27	1823.3432	211.19677	1430.7874	88.180657	96.320852	94.309580
14.2300	14.2350	372	31	1824.5144	211.65530	1430.1950	89.011638	96.196910	94.184748
14.2350	14.2400	336	26	1825.9865	211.21134	1429.6303	89.407557	96.078152	94.061732
14.2400	14.2450	318	28	1827.4591	210.76720	1429.0654	89.803626	95.959348	93.938669
14.2450	14.2500	274	24	1827.9715	210.48616	1428.5137	90.450247	95.840823	93.819795
14.2500	14.2550	273	29	1828.1225	210.26637	1427.9667	91.191534	95.722342	93.702436
14.2550	14.2600	237	15	1828.0534	210.20304	1427.4137	91.914916	95.604241	93.584004
14.2600	14.2650	248	15	1827.2320	210.67403	1426.8394	92.578358	95.487243	93.461709
14.2650	14.2700	210	20	1826.4109	211.14483	1426.2653	93.241547	95.370290	93.339460
14.2700	14.2750	228	15	1828.1568	211.18307	1425.6691	93.448730	95.255672	93.221133
14.2750	14.2800	165	20	1830.8692	211.05842	1425.0647	93.484187	95.141941	93.104292
14.2800	14.2850	175	17	1832.9554	210.88001	1424.4541	93.523531	95.023891	92.985215
14.2850	14.2900	138	13	1832.9030	210.51764	1423.8222	93.576199	94.890956	92.858374
14.2900	14.2950	114	7	1832.8507	210.15540	1423.1905	93.628848	94.758072	92.731582
14.2950	14.3000	117	11	1832.9009	210.30238	1422.5307	93.561993	94.631048	92.610051
14.3000	14.3050	130	12	1832.9897	210.64108	1421.8605	93.450159	94.506299	92.490565
14.3050	14.3100	90	21	1832.9670	210.91839	1421.1843	93.336176	94.382674	92.370254
14.3100	14.3150	96	11	1832.5634	210.98561	1420.4883	93.215049	94.263100	92.247327
14.3150	14.3200	98	13	1832.1598	211.05283	1419.7923	93.093923	94.143526	92.124401
14.3200	14.3250	91	13	1831.9824	211.09359	1419.0671	92.980533	94.024314	92.002906
14.3250	14.3300	106	11	1831.8902	211.12435	1418.3312	92.870117	93.905301	91.882015
14.3300	14.3350	114	18	1832.0053	211.20487	1417.5945	92.755899	93.786132	91.760674
14.3350	14.3400	129	16	1832.8280	211.45522	1416.8559	92.628883	93.666628	91.638002
14.3400	14.3450	156	19	1833.6510	211.70568	1416.1171	92.501819	93.547078	91.515282
14.3450	14.3500	161	18	1833.8228	211.59348	1415.3513	92.374348	93.416874	91.381987
14.3500	14.3550	197	14	1833.7495	211.34470	1414.5751	92.246681	93.282613	91.244666
14.3550	14.3600	212	21	1833.6471	211.16773	1413.8010	92.119570	93.149263	91.109625
14.3600	14.3650	215	24	1833.4457	211.23613	1413.0342	91.994382	93.019049	90.982398
14.3650	14.3700	240	25	1833.2442	211.30456	1412.2672	91.869145	92.888784	90.855123
14.3700	14.3750	264	15	1833.6562	211.41251	1411.4864	91.742033	92.763938	90.726395
14.3750	14.3800	254	18	1834.2995	211.53539	1410.7000	91.614149	92.641067	90.597054
14.3800	14.3850	245	20	1834.7844	211.65388	1409.9075	91.486535	92.517172	90.467466
14.3850	14.3900	246	25	1834.7286	211.75755	1409.0927	91.359634	92.389570	90.336818
14.3900	14.3950	237	19	1834.6729	211.86119	1408.2781	91.232781	92.262016	90.206220
14.3950	14.4000	223	19	1835.5616	211.74882	1407.4537	91.105214	92.135712	90.080235
14.4000	14.4050	198	21	1836.8062	211.55507	1406.6256	90.977388	92.009887	89.955998
14.4050	14.4100	191	14	1837.2295	211.36640	1405.8134	90.853272	91.882369	89.831341
14.4100	14.4150	183	14	1834.8433	211.19492	1405.0550	90.741724	91.748927	89.705122
14.4150	14.4200	166	17	1832.4580	211.02350	1404.2968	90.630219	91.615536	89.578952
14.4200	14.4250	168	25	1831.5436	211.27191	1403.6076	90.514788	91.484957	89.451853
14.4250	14.4300	189	14	1831.1843	211.67845	1402.9447	90.397937	91.355508	89.324472
14.4300	14.4350	143	24	1831.1917	211.95879	1402.2943	90.280214	91.226400	89.198393
14.4350	14.4400	151	16	1832.4520	211.80751	1401.6876	90.159705	91.098678	89.076975
14.4400	14.4450	166	10	1833.7122	211.65624	1401.0808	90.039196	90.970955	88.955558
14.4450	14.4500	148	14	1833.5964	211.64387	1400.5012	89.916147	90.852154	88.833212
14.4500	14.4550	136	17	1832.9616	211.68391	1399.9321	89.792205	90.736779	88.710581
14.4550	14.4600	136	13	1832.3732	211.68744	1399.3443	89.668250	90.619399	88.588061
14.4600	14.4650	142	7	1831.9449	211.56611	1398.6934	89.544460	90.495355	88.466129
14.4650	14.4700	119	12	1831.5164	211.44473	1398.0423	89.420624	90.371263	88.344151
14.4700	14.4750	128	16	1831.6414	211.45528	1397.3501	89.300626	90.243222	88.209148
14.4750	14.4800	133	16	1831.9751	211.51557	1396.6421	89.182033	90.113649	88.069190
14.4800	14.4850	112	11	1831.8112	211.51363	1395.9260	89.062108	89.983101	87.928500
14.4850	14.4900	115	10	1829.9454	211.29876	1395.1822	88.937646	89.849244	87.785330
14.4900	14.4950	125	10	1828.0789	211.08382	1394.4382	88.813136	89.715336	87.642106
14.4950	14.5000	109	8	1828.5935	211.15090	1393.6730	88.696777	89.581236	87.506921
14.5000	14.5050	101	8	1830.0062	211.32435	1392.8993	88.583429	89.446994	87.374697
14.5050	14.5100	137	15	1831.1246	211.41421	1392.1291	88.467752	89.316348	87.245391
14.5100	14.5150	154	18	1831.2377	211.21813	1391.3698	88.343902	89.197789	87.125859
14.5150	14.5200	153	15	1831.3508	211.02212	1390.6109	88.220100	89.079275	87.006372
14.5200	14.5250	157	20	1830.3204	210.98435	1389.8774	88.095286	88.966050	86.916076
14.5250	14.5300	202	15	1828.8585	211.00630	1389.1537	87.970098	88.854829	86.836806
14.5300	14.5350	231	15	1827.9888	210.94844	1388.4504	87.846250	88.739684	86.757075
14.5350	14.5400	207	25	1829.1472	210.61709	1387.8165	87.726866	88.610973	86.675688
14.5400	14.5450	225	14	1830.3052	210.28587	1387.1829	87.607527	88.482312	86.594331
14.5450	14.5500	240	22	1829.5722	210.27489	1386.5560	87.489142	88.353160	86.501959
14.5500	14.5550	255	17	1828.1263	210.38474	1385.9320	87.371178	88.223891	86.405480
14.5550	14.5600	217	16	1827.1246	210.43254	1385.2961	87.251776	88.093797	86.306298
14.5600	14.5650	189	13	1827.6455	210.26787	1384.6205	87.127655	87.961100	86.198032
14.5650	14.5700	165	8	1828.1665	210.10320	1383.9450	87.003533	87.828403	86.089767
14.5700	14.5750	179	9	1827.6597	210.16446	1383.2215	86.885237	87.712410	85.976482
14.5750	14.5800	155	22	1826.7650	210.31104	1382.4801	86.769205	87.602787	85.861360
14.5800	14.5850	140	17	1825.7781	210.43617	1381.7343	86.650970	87.491819	85.745506
14.5850	14.5900	128	13	1824.4776	210.48768	1380.9739	86.525393	87.376438	85.627341
14.5900	14.5950	113	10	1823.1765	210.53921	1380.2133	86.399768	87.261013	85.509131
14.5950	14.6000	105	11	1823.4610	210.32832	1379.4839	86.275874	87.158650	85.392373
14.6000	14.6050	108	13	1824.3435	210.01837	1378.7660	86.152591	87.061180	85.276124
14.6050	14.6100	105	6	1824.8453	209.82469	1378.0538	86.029978	86.965977	85.158155
14.6100	14.6150	85	13	1824.0424	210.02939	1377.3609	85.909684	86.878559	85.034322
14.6150	14.6200	81	6	1823.2392	210.23417	1376.6677	85.789343	86.791107	84.910441
14.6200	14.6250	83	9	1821.9767	210.19216	1376.0187	85.671848	86.689823	84.791510
14.6250	14.6300	85	6	1820.5401	210.05694	1375.3859	85.555366	86.583264	84.674385
14.6300	14.6350	65	9	1819.7610	209.86431	1374.7526	85.438571	86.476482	84.558112
14.6350	14.6400	70	8	1821.2331	209.47464	1374.1161	85.320507	86.368758	84.444556
14.6400	14.6450	95	13	1822.7046	209.08511	1373.4800	85.202489	86.261075	84.331045
14.6450	14.6500	102	11	1820.8839	209.35229	1372.8208	85.063531	86.150826	84.218464
14.6500	14.6550	92	6	1817.8197	209.86752	1372.1530	84.916673	86.039616	84.106243
14.6550	14.6600	104	12	1815.5539	210.23249	1371.4819	84.776849	85.928087	83.992586
14.6600	14.6650	109	8	1816.0250	210.08240	1370.7991	84.661011	85.815347	83.873884
14.6650	14.6700	124	11	1816.4958	209.93237	1370.1165	84.545217	85.702650	83.755227
14.6700	14.6750	113	8	1817.2819	210.15694	1369.4352	84.422971	85.587199	83.636436
14.6750	14.6800	126	11	1818.1865	210.52288	1368.7546	84.298352	85.470767	83.517656
14.6800	14.6850	93	9	1818.2276	210.69379	1368.0667	84.176892	85.353447	83.398147
14.6850	14.6900	127	15	1815.3095	210.19614	1367.3548	84.066456	85.233279	83.276345
14.6900	14.6950	116	9	1812.3914	209.69848	1366.6430	83.956020	85.113110	83.154542
14.6950	14.7000	107	12	1812.5331	209.52177	1365.9682	83.838473	84.991326	83.030493
14.7000	14.7050	108	10	1813.8314	209.46645	1365.3077	83.718301	84.868995	82.905661
14.7050	14.7100	90	5	1814.2710	209.35196	1364.6532	83.596760	84.747064	82.782382
14.7100	14.7150	91	9	1811.7666	209.03485	1364.0200	83.470729	84.626714	82.664637
14.7150	14.7200	84	7	1809.2613	208.71761	1363.3867	83.344650	84.506317	82.546847
14.7200	14.7250	75	9	1807.2337	208.12476	1362.7162	83.223461	84.388403	82.430279
14.7250	14.7300	103	10	1805.3858	207.42762	1362.0315	83.104078	84.271388	82.314135
14.7300	14.7350	88	14	1803.9668	206.91140	1361.3338	82.981742	84.153756	82.199271
14.7350	14.7400	87	12	1804.0187	207.01581	1360.5917	82.849303	84.034031	82.088825
14.7400	14.7450	97	9	1804.0707	207.12026	1359.8494	82.716813	83.914260	81.978336
14.7450	14.7500	84	11	1801.8507	207.20314	1358.7379	82.589344	83.771301	81.849488
14.7500	14.7550	78	5	1798.7706	207.27791	1357.4864	82.463706	83.619503	81.713633
14.7550	14.7600	85	9	1796.3621	207.18162	1356.2775	82.336974	83.471053	81.578516
14.7600	14.7650	77	13	1796.2538	206.49821	1355.2130	82.206274	83.333845	81.445701
14.7650	14.7700	86	10	1796.1456	205.81507	1354.1490	82.075625	83.196689	81.312936
14.7700	14.7750	88	8	1795.0462	205.99314	1353.2980	81.975836	83.071586	81.193845
14.7750	14.7800	74	7	1793.5722	206.49682	1352.5276	81.887725	82.951050	81.079933
14.7800	14.7850	60	10	1791.8866	206.81190	1351.7664	81.796036	82.832555	80.965976
14.7850	14.7900	57	3	1789.4725	206.47949	1351.0360	81.691966	82.720948	80.851751
14.7900	14.7950	69	5	1787.0593	206.14721	1350.3059	81.587935	82.609383	80.737569
14.7950	14.8000	49	10	1785.5453	205.72327	1349.5668	81.481001	82.498228	80.624510
14.8000	14.8050	51	5	1784.3723	205.26489	1348.8247	81.373027	82.387286	80.511935
14.8050	14.8100	63	10	1783.1535	204.89331	1348.0716	81.265301	82.277303	80.400215
14.8100	14.8150	69	6	1781.7799	204.82001	1347.2823	81.158613	82.170798	80.291615
14.8150	14.8200	73	9	1780.4063	204.74672	1346.4930	81.051924	82.064293	80.183014
14.8200	14.8250	57	6	1778.8291	204.38791	1345.6257	80.940880	81.954657	80.074544
14.8250	14.8300	79	7	1777.1756	203.92127	1344.7293	80.828245	81.843895	79.966181
14.8300	14.8350	65	6	1775.4608	203.50624	1343.7466	80.715628	81.732581	79.857931
14.8350	14.8400	64	4	1773.5381	203.26898	1342.4689	80.603260	81.619567	79.750254
14.8400	14.8450	61	6	1771.6146	203.03162	1341.1907	80.490849	81.506509	79.642536
14.8450	14.8500	59	10	1767.2422	202.36710	1339.9033	80.377683	81.393916	79.533213
14.8500	14.8550	64	14	1761.9426	201.54088	1338.6120	80.264193	81.281460	79.423247
14.8550	14.8600	62	14	1757.0643	200.64825	1337.3655	80.149705	81.169051	79.312781
14.8600	14.8650	56	10	1753.6335	199.52778	1336.2733	80.031816	81.056820	79.200621
14.8650	14.8700	53	9	1750.2014	198.40688	1335.1807	79.913882	80.944547	79.088418
14.8700	14.8750	65	7	1744.1491	196.98961	1334.4825	79.800206	80.833404	78.973099
14.8750	14.8800	42	8	1737.1021	195.45945	1333.9332	79.688082	80.722630	78.856540
14.8800	14.8850	77	13	1729.8995	193.74442	1333.4030	79.574859	80.612409	78.739774
14.8850	14.8900	72	10	1722.1501	191.39137	1332.9374	79.457672	80.503899	78.622100
14.8900	14.8950	86	12	1714.4035	189.03923	1332.4720	79.340531	80.395429	78.504471
14.8950	14.9000	79	3	1705.7546	188.17628	1332.0484	79.231136	80.287237	78.389162
14.9000	14.9050	89	5	1696.7646	187.87708	1331.6406	79.124681	80.179159	78.274739
14.9050	14.9100	84	11	1687.1231	188.02980	1331.1974	79.016054	80.069836	78.160684
14.9100	14.9150	78	9	1675.2309	189.73686	1330.6319	78.899843	79.956123	78.047778
14.9150	14.9200	126	10	1663.3432	191.44327	1330.0667	78.783676	79.842453	77.934915
14.9200	14.9250	94	16	1656.3247	194.44284	1329.4463	78.666535	79.730323	77.826453
14.9250	14.9300	104	11	1651.1533	197.93037	1328.8052	78.549087	79.618835	77.719714
14.9300	14.9350	109	15	1649.3135	201.46707	1328.1419	78.432687	79.507258	77.613865
14.9350	14.9400	102	17	1658.9168	205.16659	1327.4034	78.320086	79.395565	77.511255
14.9400	14.9450	125	9	1668.5201	208.86611	1326.6649	78.207484	79.283873	77.408645
14.9450	14.9500	104	11	1682.6717	211.38374	1325.9022	78.092923	79.169171	77.298059
14.9500	14.9550	122	20	1698.5383	213.45245	1325.1308	77.977681	79.053389	77.184510
14.9550	14.9600	147	10	1716.2463	215.17749	1324.3789	77.863254	78.935828	77.069998
14.9600	14.9650	180	14	1740.2497	215.71900	1323.6951	77.751824	78.812353	76.952372
14.9650	14.9700	205	16	1764.2624	216.26072	1323.0110	77.640351	78.688830	76.834701
14.9700	14.9750	205	22	1783.8597	216.39274	1322.2309	77.524013	78.564877	76.708037
14.9750	14.9800	267	25	1801.7926	216.36977	1321.4142	77.405795	78.440719	76.577927
14.9800	14.9850	373	27	1819.3687	216.34414	1320.5884	77.288226	78.318297	76.449588
14.9850	14.9900	473	31	1835.7141	216.30940	1319.7315	77.172913	78.201871	76.327359
14.9900	14.9950	605	47	1852.0657	216.27464	1318.8744	77.057556	78.085400	76.205084
14.9950	15.0000	780	51	1860.9566	216.24096	1318.1566	76.939883	77.968146	76.082737
15.0000	15.0050	892	50	1867.0259	216.20767	1317.4913	76.821272	77.850534	75.960297
15.0050	15.0100	1030	61	1871.7675	216.17508	1316.8286	76.702376	77.732158	75.838833
15.0100	15.0150	1060	66	1871.9502	216.14483	1316.1738	76.582303	77.610956	75.720514
15.0150	15.0200	1035	62	1872.1329	216.11459	1315.5192	76.462275	77.489800	75.602240
15.0200	15.0250	982	58	1871.9912	216.08498	1314.8719	76.344312	77.371504	75.488623
15.0250	15.0300	835	62	1871.7265	216.05561	1314.2274	76.227140	77.254299	75.376778
15.0300	15.0350	721	42	1871.4612	216.02562	1313.5583	76.109631	77.135464	75.263261
15.0350	15.0400	642	43	1871.1932	215.99345	1312.8036	75.990842	77.010897	75.143872
15.0400	15.0450	580	49	1870.9252	215.96130	1312.0493	75.872098	76.886376	75.024529
15.0450	15.0500	508	38	1870.6586	215.93032	1311.3045	75.754758	76.763395	74.904216
15.0500	15.0550	433	33	1870.3927	215.89981	1310.5636	75.638011	76.641062	74.783599
15.0550	15.0600	344	36	1870.1262	215.86925	1309.8338	75.521716	76.519665	74.662692
15.0600	15.0650	326	24	1869.8579	215.83860	1309.1421	75.407055	76.401574	74.540870
15.0650	15.0700	301	33	1869.5898	215.80795	1308.4506	75.292415	76.283506	74.419071
15.0700	15.0750	261	21	1869.3218	215.77861	1307.7237	75.176056	76.167474	74.301433
15.0750	15.0800	246	19	1869.0542	215.74979	1306.9838	75.059104	76.052276	74.185435
15.0800	15.0850	246	22	1868.7860	215.72045	1306.2481	74.942451	75.935814	74.069748
15.0850	15.0900	209	18	1868.5167	215.68935	1305.5283	74.827021	75.815198	73.955331
15.0900	15.0950	170	13	1868.2473	215.65823	1304.8081	74.711547	75.694536	73.840870
15.0950	15.1000	168	18	1867.9726	215.62687	1304.0483	74.596041	75.578877	73.723126
15.1000	15.1050	143	11	1867.6958	215.59539	1303.2732	74.480486	75.465075	73.604098
15.1050	15.1100	164	11	1867.4202	215.56383	1302.5074	74.365772	75.351164	73.484853
15.1100	15.1150	126	14	1867.1489	215.53197	1301.7734	74.253979	75.236901	73.364886
15.1150	15.1200	104	12	1866.8775	215.50010	1301.0392	74.142143	75.122594	73.244872
15.1200	15.1250	122	8	1866.6045	215.46908	1300.3099	74.029151	75.008304	73.124473
15.1250	15.1300	93	8	1866.3308	215.43837	1299.5820	73.915661	74.893961	73.003864
15.1300	15.1350	94	15	1866.0562	215.40746	1298.8475	73.800750	74.779033	72.883302
15.1350	15.1400	69	9	1865.7781	215.37577	1298.0885	73.680751	74.661900	72.762697
15.1400	15.1450	78	11	1865.5002	215.34410	1297.3298	73.560798	74.544812	72.642139
15.1450	15.1500	93	9	1865.2231	215.31252	1296.5436	73.440423	74.426131	72.527509
15.1500	15.1550	109	14	1864.9464	215.28097	1295.7469	73.319898	74.306854	72.415137
15.1550	15.1600	125	11	1864.6689	215.24957	1294.9323	73.201753	74.187913	72.301995
15.1600	15.1650	127	16	1864.3884	215.21866	1294.0546	73.091694	74.070007	72.186079
15.1650	15.1700	136	13	1864.1079	215.18777	1293.1773	72.981677	73.952145	72.070207
15.1700	15.1750	136	17	1863.8316	215.15642	1292.4165	72.870065	73.832228	71.961059
