# do not edit -- automatically generated Mon Aug 27 17:14:16 2018 from /susfu/kashyap/solar/ISSI/Capella_O7/binned_14t18.pro
# 
# events in wavelength region [14.00,18.00] Ang
# 
# BACKSCAL = 10.0000
#columns are:
#WLOW: wavelength grid bin lower bound [Angstrom]
#WHIGH: wavelength grid bin upper bound [Angstrom]
#SRCCT: counts in bin [ct]
#BKGCT: background counts in bin [ct]
#EA{p|n}_OBSID: effective area for each ObsID [cm^2 ksec]
WLOW	WHIGH	SRCCT	BKGCT	EAn_62435	EAn_01167	EAn_01244	EAn_62410	EAn_01246	EAn_62422	EAn_62423	EAn_01420	EAn_01248	EAn_00058	EAn_01009	EAn_02582	EAn_03479	EAn_03675	EAn_05041	EAn_05956	EAn_06165	EAn_06472	EAn_10600	EAn_11932	EAn_13090	EAn_14240	EAn_18359	EAn_18361	EAn_18363
N	N	N	N	N	N	N	N	N	N	N	N	N	N	N	N	N	N	N	N	N	N	N	N	N	N	N	N	N
14.0000	14.0067	234	100	471.19449	220.50435	176.44635	163.42978	212.54514	164.42469	212.01143	436.98668	1235.2107	490.48887	386.14510	406.90927	401.80325	382.09932	400.18956	418.41784	394.45578	425.18102	397.33400	410.64264	397.84809	401.13363	127.65800	127.52764	127.77563
14.0067	14.0134	258	103	471.20708	220.51024	176.45119	163.43452	212.55052	164.42908	212.01675	437.00368	1235.2794	490.50149	386.16958	406.90482	401.93475	382.12462	400.19726	418.44101	394.47157	425.19165	397.33562	410.66619	397.85117	401.14256	127.66301	127.53247	127.77850
14.0134	14.0201	288	95	471.23657	220.52290	176.46350	163.44635	212.56300	164.43931	212.02966	437.03742	1235.3950	490.53095	386.20635	406.91568	402.08686	382.15911	400.21565	418.48130	394.50058	425.21587	397.35159	410.70334	397.86906	401.16631	127.67255	127.54196	127.78680
14.0201	14.0268	316	96	471.26329	220.53605	176.47303	163.45503	212.57520	164.44868	212.04223	437.06901	1235.4994	490.55889	386.24243	406.92545	402.21697	382.18694	400.23501	418.51837	394.52880	425.23720	397.36578	410.73794	397.88425	401.18731	127.68006	127.55023	127.79357
14.0268	14.0335	339	91	471.28872	220.54943	176.48129	163.46226	212.58727	164.45765	212.05466	437.09963	1235.5985	490.58613	386.27820	406.93472	402.33694	382.21171	400.25482	418.55396	394.55667	425.25719	397.37914	410.77136	397.89818	401.20704	127.68663	127.55796	127.79963
14.0335	14.0402	353	104	471.31160	220.55842	176.49006	163.47077	212.59729	164.46485	212.06384	437.12673	1235.6900	490.60844	386.30882	406.93812	402.39970	382.23582	400.27407	418.58803	394.58108	425.27457	397.38974	410.80175	397.90984	401.22412	127.69401	127.56518	127.80510
14.0402	14.0469	414	107	471.33392	220.56642	176.49894	163.47958	212.60686	164.47167	212.07229	437.15306	1235.7799	490.62965	386.33830	406.94022	402.44977	382.25979	400.29320	418.62175	394.60474	425.29135	397.39972	410.83148	397.92100	401.24062	127.70156	127.57229	127.81044
14.0469	14.0536	433	89	471.35511	220.57803	176.50595	163.48606	212.61595	164.47973	212.08253	437.18567	1235.8627	490.65342	386.36788	406.94517	402.46826	382.28008	400.34101	418.65956	394.62926	425.30901	397.41042	410.86160	397.93271	401.25816	127.70901	127.58000	127.81643
14.0536	14.0603	427	107	471.37740	220.59007	176.51341	163.49298	212.62565	164.48811	212.09323	437.21962	1235.9487	490.67824	386.39817	406.95087	402.48593	382.30102	400.39184	418.69815	394.65461	425.32749	397.42186	410.89272	397.94517	401.27647	127.71669	127.58799	127.82264
14.0603	14.0670	437	97	471.41186	220.60472	176.52659	163.50581	212.64214	164.49937	212.10792	437.26424	1236.0710	490.71272	386.43586	406.96287	402.51127	382.33058	400.45949	418.74286	394.68811	425.35408	397.44070	410.93420	397.96528	401.30222	127.72686	127.59869	127.83071
14.0670	14.0737	430	108	471.44550	220.61955	176.53928	163.51799	212.65773	164.51066	212.12252	437.31006	1236.1952	490.74694	386.47349	406.97548	402.53656	382.36064	400.52676	418.78769	394.72143	425.38069	397.45948	410.97490	397.98539	401.32830	127.73713	127.60914	127.83892
14.0737	14.0804	456	99	471.47623	220.63501	176.55027	163.52794	212.67014	164.52206	212.13677	437.36006	1236.3262	490.78021	386.51092	406.99025	402.56166	382.39239	400.59271	418.83295	394.75409	425.40739	397.47803	411.01287	398.00545	401.35551	127.74770	127.61871	127.84762
14.0804	14.0871	401	104	471.50847	220.65076	176.56166	163.53844	212.68423	164.53360	212.15165	437.41031	1236.4505	490.81917	386.54900	407.00410	402.58889	382.42402	400.65570	418.87478	394.78717	425.43611	397.49716	411.05169	398.02578	401.38225	127.75797	127.62834	127.85629
14.0871	14.0938	369	92	471.54344	220.66701	176.57376	163.54995	212.70135	164.54538	212.16768	437.46102	1236.5626	490.86844	386.58826	407.01630	402.61997	382.45543	400.71335	418.91041	394.82101	425.46851	397.51733	411.09206	398.04659	401.40810	127.76769	127.63809	127.86491
14.0938	14.1005	365	103	471.58220	220.68681	176.58822	163.56361	212.71832	164.55867	212.18462	437.51603	1236.6918	490.93211	386.63009	407.03419	402.65573	382.48882	400.77371	418.95070	394.85891	425.50613	397.54123	411.13725	398.07156	401.43868	127.77872	127.64931	127.87467
14.1005	14.1072	300	110	471.62489	220.71030	176.60512	163.57951	212.73512	164.57353	212.20251	437.57554	1236.8389	491.01078	386.67459	407.05799	402.69638	382.52427	400.83690	418.99582	394.90103	425.54919	397.56902	411.18745	398.10085	401.47418	127.79111	127.66203	127.88562
14.1072	14.1139	344	97	471.60472	220.71101	176.59752	163.57241	212.72664	164.56647	212.19383	437.57343	1236.8157	491.02739	386.67051	407.02702	402.68307	382.51336	400.84642	418.98320	394.88964	425.53495	397.54388	411.18064	398.07694	401.45583	127.78660	127.65850	127.88025
14.1139	14.1206	310	112	471.54670	220.69802	176.57517	163.55148	212.70293	164.54622	212.16915	437.53425	1236.6901	491.00666	386.63719	406.96309	402.63729	382.47456	400.82364	418.93583	394.84604	425.48622	397.48688	411.13954	398.02102	401.40509	127.77191	127.64519	127.86504
14.1206	14.1273	302	103	471.48923	220.68780	176.55369	163.53153	212.67614	164.53059	212.14287	437.49938	1236.5843	490.98758	386.59949	406.89966	402.59192	382.43081	400.79319	418.88898	394.80357	425.43798	397.42969	411.09885	397.96466	401.35421	127.75857	127.63125	127.84843
14.1273	14.1340	286	93	471.43194	220.67848	176.53248	163.51189	212.64838	164.51643	212.11607	437.46588	1236.4848	490.96903	386.56040	406.83639	402.54667	382.38550	400.76029	418.84230	394.76144	425.38990	397.37243	411.05830	397.90815	401.30328	127.74567	127.61710	127.83138
14.1340	14.1407	327	79	471.37316	220.66885	176.51089	163.49134	212.62310	164.50541	212.09510	437.42851	1236.3802	490.94180	386.52445	406.77226	402.50123	382.34099	400.73469	418.79453	394.71982	425.34153	397.31552	411.02081	397.85209	401.25209	127.73080	127.60222	127.81590
14.1407	14.1474	314	93	471.31418	220.65911	176.48961	163.47070	212.59805	164.49514	212.07514	437.39064	1236.2747	490.91324	386.48879	406.70793	402.45570	382.29663	400.70953	418.74661	394.67819	425.29308	397.25859	410.98354	397.79603	401.20088	127.71569	127.58724	127.80057
14.1474	14.1541	383	105	471.25454	220.64629	176.48089	163.45090	212.57063	164.49804	212.06626	437.35126	1236.1546	490.87427	386.44984	406.64064	402.40795	382.25439	400.66888	418.69799	394.63428	425.24311	397.19978	410.94121	397.73812	401.14968	127.70035	127.57197	127.78357
14.1541	14.1608	354	90	471.19474	220.63283	176.47341	163.43089	212.54313	164.49889	212.05788	437.31225	1236.0377	490.83529	386.41092	406.57333	402.36028	382.21129	400.62973	418.64922	394.59001	425.19300	397.14085	410.89951	397.68005	401.09811	127.68504	127.55691	127.76657
14.1608	14.1675	403	104	471.13411	220.61602	176.47231	163.40978	212.51517	164.48906	212.05213	437.27517	1235.9379	490.79624	386.37221	406.50592	402.31307	382.16371	400.59837	418.59964	394.54393	425.14224	397.08128	410.86113	397.62118	401.04463	127.66996	127.54292	127.74963
14.1675	14.1742	481	98	471.07815	220.60104	176.47085	163.39220	212.49031	164.48014	212.04663	437.24054	1235.8448	490.76012	386.33635	406.44261	402.26929	382.11998	400.56907	418.55402	394.50250	425.09531	397.02508	410.82591	397.56607	400.99524	127.65591	127.52962	127.73406
14.1742	14.1809	581	123	471.03328	220.59043	176.46856	163.38304	212.47279	164.47338	212.04169	437.21172	1235.7674	490.73092	386.30727	406.38899	402.23364	382.08541	400.54469	418.51783	394.47209	425.05747	396.97686	410.79821	397.51986	400.95555	127.64431	127.51793	127.72172
14.1809	14.1876	676	113	470.98714	220.57840	176.46453	163.37758	212.45763	164.46565	212.03694	437.18207	1235.6870	490.70088	386.27868	406.33455	402.19793	382.05205	400.51919	418.48151	394.44031	425.01973	396.92926	410.76930	397.47355	400.91532	127.63309	127.50641	127.70879
14.1876	14.1943	810	116	470.93932	220.56450	176.45818	163.37700	212.44558	164.45664	212.03244	437.15135	1235.6026	490.66974	386.25074	406.27903	402.16215	382.02030	400.49222	418.44504	394.40673	424.98213	396.88248	410.73882	397.42710	400.87437	127.62237	127.49510	127.69508
14.1943	14.2010	1069	129	470.89332	220.55149	176.45083	163.37917	212.43888	164.44780	212.02293	437.11998	1235.5092	490.63952	386.22386	406.22283	402.12659	381.98713	400.46782	418.40840	394.37359	424.94436	396.83510	410.71189	397.38066	400.83378	127.61120	127.48332	127.68260
14.2010	14.2077	1272	126	470.84870	220.53917	176.44270	163.38346	212.43631	164.43909	212.00956	437.08810	1235.4088	490.61001	386.19780	406.16609	402.09121	381.95289	400.44540	418.37163	394.34077	424.90645	396.78726	410.68770	397.33421	400.79345	127.59968	127.47116	127.67106
14.2077	14.2144	1496	159	470.80292	220.52584	176.43476	163.37743	212.44204	164.42955	211.99850	437.05687	1235.3049	490.57920	386.17179	406.11080	402.05619	381.91775	400.41835	418.33566	394.30869	424.86892	396.74039	410.66137	397.28821	400.75326	127.58825	127.46068	127.65758
14.2144	14.2211	1614	132	470.75664	220.51208	176.42690	163.36695	212.45135	164.41965	211.98845	437.02594	1235.1995	490.54784	386.14581	406.05612	402.02133	381.88222	400.38930	418.30004	394.27693	424.83157	396.69393	410.63412	397.24240	400.71314	127.57684	127.45092	127.64327
14.2211	14.2278	1523	114	470.73459	220.50857	176.42547	163.36818	212.45412	164.41831	211.98831	437.01542	1235.1524	490.53971	386.14013	406.02066	402.00633	381.86900	400.38695	418.28387	394.26477	424.81551	396.66680	410.62957	397.21655	400.69286	127.57218	127.44621	127.63832
14.2278	14.2345	1377	140	470.71737	220.50712	176.42533	163.37175	212.45559	164.41868	211.99016	437.00899	1235.1170	490.53622	386.13851	405.98903	401.99528	381.86024	400.38994	418.27159	394.25653	424.80371	396.64354	410.62955	397.19469	400.67653	127.56887	127.44252	127.63523
14.2345	14.2412	1228	137	470.70040	220.50658	176.42499	163.37349	212.45948	164.41887	211.98994	437.00198	1235.0787	490.53601	386.13613	405.95787	401.98440	381.85010	400.38391	418.26033	394.24732	424.79148	396.62015	410.63424	397.17276	400.66228	127.56477	127.43869	127.62897
14.2412	14.2479	995	140	470.68346	220.50598	176.42473	163.37506	212.46319	164.41896	211.98964	436.99503	1235.0422	490.53558	386.13384	405.92681	401.97352	381.83965	400.37814	418.24909	394.23834	424.77928	396.59675	410.63862	397.15080	400.64794	127.56079	127.43486	127.62287
14.2479	14.2546	908	104	470.66675	220.50468	176.42530	163.37560	212.46467	164.41818	211.98915	436.98873	1235.0220	490.53223	386.13267	405.89651	401.96256	381.82693	400.37731	418.23780	394.23170	424.76756	396.57335	410.63886	397.12862	400.63223	127.55812	127.43099	127.61911
14.2546	14.2613	859	105	470.64960	220.50339	176.42545	163.37589	212.46637	164.41727	211.98896	436.98233	1234.9980	490.52845	386.13246	405.86517	401.95163	381.81502	400.37447	418.22623	394.22447	424.75576	396.54995	410.64122	397.10638	400.61664	127.55539	127.42729	127.61486
14.2613	14.2680	739	109	470.63106	220.50209	176.42420	163.37540	212.46879	164.41594	211.98976	436.97558	1234.9620	490.52325	386.13531	405.83050	401.94080	381.80573	400.36517	418.21373	394.21534	424.74371	396.52655	410.65038	397.08399	400.60146	127.55248	127.42415	127.60900
14.2680	14.2747	712	117	470.61494	220.50106	176.42350	163.37522	212.46951	164.41480	211.98975	436.96854	1234.9261	490.51953	386.13819	405.79729	401.92980	381.79639	400.35862	418.20167	394.20718	424.73169	396.50333	410.65978	397.06150	400.58593	127.54898	127.42105	127.60354
14.2747	14.2814	708	128	470.60291	220.50046	176.42373	163.37554	212.46737	164.41397	211.98838	436.96102	1234.8905	490.51832	386.14113	405.76651	401.91852	381.78696	400.35676	418.19035	394.20066	424.71974	396.48038	410.66956	397.03882	400.56979	127.54449	127.41798	127.59879
14.2814	14.2881	572	104	470.59210	220.49521	176.42120	163.37268	212.46438	164.41084	211.98426	436.94809	1234.8392	490.50791	386.13756	405.72888	401.90245	381.77044	400.34577	418.17398	394.18830	424.70266	396.45248	410.67847	397.01158	400.54979	127.53882	127.41292	127.59253
14.2881	14.2948	567	123	470.58250	220.48539	176.41599	163.36668	212.46056	164.40545	211.97744	436.92985	1234.7724	490.48848	386.12760	405.68454	401.88169	381.74695	400.32582	418.15267	394.17021	424.68055	396.41975	410.68652	396.97985	400.52601	127.53199	127.40591	127.58478
14.2948	14.3015	449	103	470.60344	220.48994	176.41785	163.37006	212.46623	164.40798	211.98138	436.93377	1234.7684	490.49655	386.13133	405.66193	401.88078	381.74624	400.32950	418.15110	394.17353	424.67869	396.40612	410.71441	396.96769	400.52116	127.53189	127.40577	127.58321
14.3015	14.3082	376	105	470.64162	220.50261	176.42371	163.37872	212.47727	164.41498	211.99139	436.95020	1234.7999	490.52013	386.14280	405.65159	401.89107	381.75838	400.34651	418.16068	394.18894	424.68826	396.40327	410.75352	396.96658	400.52699	127.53558	127.40952	127.58511
14.3082	14.3149	321	85	470.69137	220.51098	176.43362	163.38719	212.48609	164.42250	212.00106	436.96575	1234.8351	490.54152	386.15349	405.63938	401.90069	381.76794	400.35635	418.17186	394.21091	424.69738	396.40042	410.78584	396.96487	400.53189	127.53885	127.41234	127.58658
14.3149	14.3216	319	96	470.74450	220.51808	176.44470	163.39560	212.49427	164.43018	212.01063	436.98103	1234.8713	490.56226	386.16396	405.62664	401.91011	381.77675	400.36409	418.18352	394.23480	424.70637	396.39756	410.81619	396.96299	400.53651	127.54199	127.41488	127.58793
14.3216	14.3283	295	96	470.78136	220.52843	176.45015	163.40140	212.50632	164.43632	212.02010	436.99643	1234.9013	490.58146	386.17339	405.61463	401.91848	381.78407	400.37305	418.19305	394.25794	424.71372	396.39501	410.83700	396.96139	400.54256	127.54560	127.41898	127.59002
14.3283	14.3350	317	97	470.81939	220.54033	176.45622	163.40807	212.51981	164.44333	212.03075	437.01427	1234.9375	490.60347	386.18505	405.60495	401.92888	381.79354	400.38441	418.20479	394.28338	424.72312	396.39473	410.85895	396.96210	400.55104	127.54998	127.42391	127.59289
14.3350	14.3417	330	85	470.92147	220.58030	176.48954	163.44039	212.55722	164.47363	212.06883	437.08782	1235.1334	490.69307	386.24981	405.64690	401.98802	381.85558	400.44761	418.27163	394.36318	424.78292	396.44558	410.92884	397.01495	400.61157	127.57101	127.44395	127.61153
14.3417	14.3484	337	93	471.02638	220.62203	176.52421	163.47335	212.59654	164.50533	212.10904	437.16631	1235.3421	490.78722	386.31797	405.69292	402.05100	381.92161	400.51129	418.34257	394.44871	424.84700	396.50042	411.00181	397.07160	400.67601	127.59322	127.46527	127.63166
14.3484	14.3551	416	98	471.14463	220.67207	176.56518	163.50933	212.64476	164.54354	212.15925	437.26799	1235.6114	490.90273	386.40205	405.75800	402.13192	382.00630	400.57728	418.43270	394.56098	424.93110	396.57390	411.08914	397.14606	400.75877	127.62102	127.49260	127.65880
14.3551	14.3618	510	97	471.26225	220.72261	176.60567	163.54618	212.69401	164.58119	212.20813	437.36713	1235.8772	491.01601	386.48452	405.82095	402.21192	382.08828	400.65019	418.52170	394.67162	425.01430	396.64595	411.17359	397.21919	400.83954	127.64827	127.51979	127.68509
14.3618	14.3685	559	109	471.37843	220.77428	176.64509	163.58494	212.74556	164.61758	212.25406	437.46061	1236.1350	491.12429	386.56339	405.87914	402.28989	382.16422	400.73845	418.60816	394.77861	425.09549	396.71482	411.25160	397.28932	400.91589	127.67427	127.54668	127.70949
14.3685	14.3752	602	122	471.48844	220.82326	176.68414	163.62151	212.79227	164.65357	212.30041	437.55318	1236.3830	491.23184	386.64098	405.93537	402.36806	382.23985	400.81179	418.69190	394.88026	425.17656	396.78176	411.32862	397.35723	400.98936	127.70023	127.57241	127.73377
14.3752	14.3819	652	123	471.59078	220.86891	176.72275	163.65538	212.83296	164.68909	212.34728	437.64466	1236.6186	491.33851	386.71701	405.98918	402.44652	382.31510	400.86655	418.77229	394.97528	425.25749	396.84632	411.40440	397.42239	401.05925	127.72616	127.59672	127.75792
14.3819	14.3886	696	93	471.69493	220.91520	176.75980	163.68900	212.87898	164.72409	212.39226	437.73466	1236.8562	491.44279	386.79207	406.04166	402.52442	382.39023	400.92727	418.85281	395.06993	425.33824	396.91078	411.47926	397.48770	401.12907	127.75198	127.62168	127.78138
14.3886	14.3953	740	123	471.80038	220.96195	176.79572	163.72246	212.92885	164.75870	212.43586	437.82359	1237.0951	491.54531	386.86642	406.09319	402.60191	382.46527	400.99230	418.93342	395.16429	425.41883	396.97515	411.55343	397.55312	401.19885	127.77772	127.64711	127.80432
14.3953	14.4020	682	122	471.90769	221.01135	176.83441	163.75926	212.97467	164.79514	212.48269	437.91946	1237.3430	491.65462	386.94519	406.14923	402.68253	382.54138	401.05820	419.01861	395.26006	425.50311	397.04222	411.63062	397.62148	401.27214	127.80475	127.67287	127.82874
14.4020	14.4087	653	99	472.01576	221.06182	176.87421	163.79741	213.01887	164.83231	212.53081	438.01814	1237.5946	491.76666	387.02573	406.20709	402.76440	382.61793	401.12447	419.10563	395.35641	425.58887	397.11038	411.70902	397.69102	401.34684	127.83231	127.69878	127.85376
14.4087	14.4154	565	126	472.13232	221.11558	176.91776	163.83712	213.07089	164.87206	212.58191	438.12470	1237.8838	491.88623	387.11264	406.26840	402.85559	382.70442	401.20907	419.19915	395.45911	425.68384	397.18722	411.79770	397.76935	401.43139	127.86340	127.72771	127.88184
14.4154	14.4221	535	107	472.25038	221.16991	176.96197	163.87710	213.12430	164.91226	212.63353	438.23266	1238.1797	492.00712	387.20069	406.33032	402.94843	382.79268	401.29695	419.29382	395.56294	425.78044	397.26562	411.88820	397.84923	401.51769	127.89512	127.75718	127.91046
14.4221	14.4288	546	101	472.38971	221.23421	177.01051	163.92365	213.18540	164.95981	212.69448	438.35477	1238.5043	492.15348	387.30463	406.40503	403.05538	382.89543	401.41581	419.40734	395.68277	425.89225	397.35842	411.99268	397.94368	401.61845	127.93061	127.79167	127.94252
14.4288	14.4355	509	102	472.52905	221.29868	177.05974	163.97045	213.24638	165.00748	212.75561	438.47705	1238.8300	492.30033	387.40881	406.47917	403.16269	382.99822	401.53529	419.52081	395.80274	426.00435	397.45146	412.09747	398.03861	401.71934	127.96616	127.82627	127.97474
14.4355	14.4422	459	100	472.66537	221.36302	177.11344	164.01814	213.30546	165.05501	212.81681	438.59850	1239.1584	492.44722	387.51246	406.54714	403.27064	383.09925	401.65518	419.63120	395.92149	426.11650	397.54419	412.20256	398.13513	401.81912	128.00156	127.86089	128.00765
14.4422	14.4489	417	96	472.80156	221.42815	177.16575	164.06489	213.36539	165.10243	212.87766	438.71972	1239.4864	492.59471	387.61619	406.61489	403.37821	383.20074	401.77524	419.74230	396.03956	426.22858	397.63693	412.30776	398.23375	401.91934	128.03808	127.89517	128.04038
14.4489	14.4556	409	106	472.93744	221.49565	177.21388	164.10889	213.42787	165.14958	212.93748	438.84034	1239.8129	492.74409	387.72022	406.68201	403.48471	383.30362	401.89590	419.85552	396.15564	426.34053	397.72970	412.41336	398.33868	402.02092	128.07795	127.92844	128.07252
14.4556	14.4623	390	111	473.07228	221.56141	177.26417	164.15543	213.48872	165.19725	212.99823	438.96020	1240.1385	492.89134	387.82407	406.74735	403.59136	383.40618	402.01661	419.96749	396.27324	426.45226	397.82235	412.51841	398.44921	402.12243	128.11642	127.96245	128.10441
14.4623	14.4690	405	112	473.20541	221.62437	177.31786	164.20599	213.54695	165.24574	213.06045	439.07883	1240.4626	493.03514	387.92760	406.80983	403.69821	383.50821	402.13737	420.07743	396.39322	426.56360	397.91479	412.62257	398.56865	402.22380	128.15266	127.99766	128.13589
